Wavelength (nm),Blank1,F503,F502,F510,F511,F506,F507,F518,F519,F514,F515,F521,F520,F517,F516
800,-0.004206,-0.002126,0.001231,-0.002013,-0.003046,0.002298,-0.000345,-0.00215,-0.002404,0.001036,0.001979,0.001635,-0.000454,-0.000704,-0.000093
799.5,-0.002962,-0.002799,-0.002598,0.000816,0.000298,0.003456,0.001281,0.00242,-0.000475,0.003163,0.003991,0.00033,0.005023,0.000122,0.001535
799,0.003372,-0.000656,-0.00016,-0.002813,0.001669,0.000296,-0.002468,0.000009,0.000654,0.001707,0.002559,0.002463,0.00063,-0.002379,-0.003269
798.5,-0.000137,0.000881,-0.004903,-0.001474,0.00263,-0.00158,-0.000153,-0.000076,-0.001998,0.003498,0.001276,-0.002546,-0.001819,-0.001578,0.002113
798,-0.001466,-0.000864,0.000729,0.001997,0.005139,0.001287,-0.00315,0.0005,0.001801,-0.000262,-0.003099,0.001065,0.002448,-0.000794,0.000615
797.5,0.002218,0.003508,-0.002749,-0.002845,-0.001764,0.006083,0.001736,0.000531,0.002801,-0.001585,-0.000852,-0.002028,-0.004544,-0.001041,-0.001205
797,0.000856,-0.000592,0.000654,-0.000867,0.001482,0.001314,-0.003481,-0.004899,-0.004978,0.001479,-0.000331,0.000023,-0.002318,-0.000106,0.001473
796.5,0.000387,0.000661,0.002564,-0.001001,0.003431,-0.000632,-0.000845,0.001673,0.000763,0.00147,0.003347,-0.002935,-0.000012,-0.002638,-0.000054
796,0.000055,-0.001518,-0.002446,-0.00032,0.003793,0.002415,-0.000281,0.002218,-0.000282,-0.001523,-0.000612,0.000711,-0.001024,-0.00291,-0.001029
795.5,-0.000918,0.002534,0.002483,-0.002682,0.00047,0.0015,-0.000748,-0.00148,-0.001947,-0.001704,-0.002071,0.000588,0.002379,-0.002263,0.000061
795,-0.001852,-0.000071,0.003704,0.001277,0.005826,0.00328,-0.000109,0.001982,-0.001166,-0.003262,-0.001538,-0.000649,0.00127,-0.003207,-0.001146
794.5,-0.002327,-0.000447,-0.001134,-0.001349,-0.000452,0.00204,-0.002539,0.001915,-0.0008,-0.00136,-0.000919,-0.000597,-0.002145,-0.000566,0.000279
794,-0.003255,-0.002606,-0.000731,0.000558,0.000376,0.003759,-0.000225,-0.000088,0.000054,0.000236,-0.001251,-0.001139,0.000814,0.00005,0.000233
793.5,-0.002402,0.00099,-0.000481,-0.001511,-0.000759,0.004381,-0.001788,0.000339,-0.001128,-0.001231,-0.000335,-0.002125,-0.003104,0.000262,-0.002059
793,-0.003659,-0.001492,0.000966,-0.001281,0.002224,0.005563,0.000876,-0.001634,-0.003013,-0.000501,0.000138,-0.003339,-0.005581,-0.003934,-0.001454
792.5,-0.002645,-0.001883,-0.001394,0.000895,0.001567,0.00271,0.001387,0.000322,-0.000371,0.001205,0.002027,0.002026,0.001005,0.006129,0.00363
792,0.005205,0.001963,0.000653,0.000846,0.005713,0.001977,-0.001578,0.000423,0.001981,-0.000579,-0.002171,-0.001053,0.000482,0.000629,0.001332
791.5,0.001422,0.002432,-0.002603,-0.005038,0.000149,0.002249,-0.00193,0.002087,0.001278,-0.002097,-0.002106,0.000091,0.000096,-0.003172,-0.000442
791,-0.000466,0.002842,0.001555,-0.003987,-0.001222,0.003413,0.00137,0.005239,0.003011,-0.001654,-0.003115,-0.000011,0.000711,0.00112,0.003019
790.5,-0.000004,0.001992,0.001022,-0.001493,0.003401,0.002968,0.000657,0.001638,-0.000174,0.000564,-0.00053,0.001926,0.001669,0.000589,0.001265
790,-0.000148,-0.000181,-0.000287,-0.000335,0.003829,0.004001,0.000805,0.000733,0.000035,-0.002444,0.001916,-0.000756,-0.001773,-0.004925,0.00153
789.5,-0.001307,-0.000215,-0.004984,0.000468,0.003435,0.004629,-0.000326,-0.001928,-0.00011,0.002095,0.001593,0.001797,0.002733,-0.001973,-0.000615
789,-0.002052,-0.000314,-0.001144,0,-0.000738,0.002099,-0.00032,-0.004067,-0.001088,0.000531,-0.002381,0.002066,0.000186,-0.000129,0.00003
788.5,0.000878,0.000408,-0.00148,-0.000158,-0.000634,0.002579,-0.00095,0.001617,-0.000633,0.000084,0.003095,-0.003358,-0.00092,0.001522,0.001103
788,0.002243,0.002148,-0.001733,0.000517,0.004331,0.005208,0.00099,-0.000637,0.001884,-0.000698,0.001368,0.000997,-0.000843,-0.001719,0.000724
787.5,-0.001235,-0.003297,-0.002958,-0.000611,0.001616,0.003525,-0.000993,0.000131,-0.001334,0.003229,0.001583,-0.00033,-0.000401,0.001892,0.002679
787,0.001152,-0.000994,-0.001166,-0.00084,-0.000595,0.002627,-0.002261,0.000348,-0.003107,0.000181,-0.004132,0.00296,0.000971,-0.005343,0.00055
786.5,-0.001739,-0.001098,-0.000006,0.000679,0.003197,-0.000546,-0.001782,-0.000028,0.000972,0.003956,0.003987,-0.001813,-0.001039,0.001783,-0.000084
786,-0.005699,-0.002248,-0.000839,-0.00169,0.001685,0.000199,0.001125,0.001262,-0.001463,0.001223,-0.000622,0.001466,0.002163,0.000785,-0.001003
785.5,0.000347,0.001494,-0.001358,-0.002831,0.001433,0.005476,0.006907,-0.002583,0.001189,-0.00166,0.00549,-0.000465,0.003166,0.001352,0.001299
785,-0.001225,-0.001222,0.001434,0.000004,0.004939,0.004544,0.00215,-0.004222,-0.001032,-0.000329,0.002375,-0.000322,-0.002541,0.001918,0.003992
784.5,-0.001743,-0.000658,-0.003096,0.00027,0.00289,0.003888,0.00097,-0.0007,-0.00026,-0.000695,0.001696,0.003574,-0.00079,0.002668,0.001603
784,0.001804,0.002757,-0.001227,-0.002888,-0.001412,0.00119,-0.002289,0.003718,-0.000258,0.001416,0.001997,0.001579,0.002769,0.003218,0.004691
783.5,-0.000883,0.000253,0.000505,-0.001226,0.002241,0.003594,-0.000515,0.000426,0.001947,-0.002856,-0.000482,0.001364,0.003458,0.00094,0.002654
783,-0.000509,-0.0012,0.0006,-0.00355,0.000074,0.00327,-0.002823,-0.001263,-0.000406,-0.002435,-0.001053,0.000112,-0.000144,-0.002952,0.000125
782.5,-0.000493,-0.000413,-0.004268,-0.002905,0.001745,-0.000127,-0.000399,-0.001726,0.000674,0.000058,-0.002901,0.000139,-0.001569,-0.000894,0.001581
782,-0.001139,-0.001223,0.002899,0.000725,0.00307,0.005415,0.001496,0.00017,-0.002038,0.000671,0.00062,0.003275,0.000817,-0.000736,0.000476
781.5,0.003915,0.001276,0.002055,-0.000747,0.002075,0.005211,0.001041,0.000614,0.000008,0.00098,0.00136,-0.001184,-0.002364,-0.001621,-0.001272
781,-0.002517,-0.001014,-0.000259,-0.002013,0.000093,0.002876,-0.002479,0.001039,0.001556,0.00045,0.003055,0.002068,0.003057,0.002198,0.000616
780.5,-0.002621,-0.001137,-0.001216,-0.002097,0.002633,-0.001468,-0.005318,-0.002744,0.001318,-0.001116,-0.001467,-0.00385,-0.004396,0.001542,0.006014
780,0.001064,0.001462,0.00084,-0.002794,-0.001488,0.004196,-0.000281,-0.000836,-0.000445,0.003215,0.000323,0.001474,0.00175,-0.003737,-0.000451
779.5,0.001723,-0.001839,-0.002254,-0.00043,0.005839,0.004847,-0.001059,0.000832,-0.000851,0.000115,-0.002832,0.000114,0.000015,0.001329,-0.002896
779,-0.002997,0.000032,0.000492,-0.002314,-0.0028,0.004021,-0.001161,-0.000369,-0.001042,-0.000533,0.00053,0.001398,0.001235,0.000946,0.00068
778.5,-0.004021,0.001923,-0.003305,-0.001334,0.003182,0.002929,-0.000748,0.001281,0.00076,0.001537,0.002062,0.001997,0.000334,0.000722,-0.000396
778,0.004394,0.003043,-0.002081,-0.001839,0.00185,0.001826,-0.001637,-0.002216,-0.004472,0.001977,-0.000818,-0.001532,-0.001275,0.000162,0.000076
777.5,-0.000167,-0.000474,-0.000596,-0.001684,0.001189,0.003643,0.000996,0.001333,-0.00059,0.002317,0.003744,0.00025,-0.000156,-0.00216,0.00119
777,-0.000945,-0.00424,-0.000758,0.004241,0.00343,0.003973,-0.000056,-0.001592,-0.000393,-0.001384,0.002058,-0.00089,0.000196,0.001181,-0.000153
776.5,0.000751,-0.000347,-0.002158,-0.004244,-0.001562,0.005438,0.003693,0.00053,0.001341,-0.002374,-0.000193,0.002431,-0.001178,-0.001628,-0.000844
776,0.002919,0.001845,0.000519,-0.002677,0.001738,0.001357,-0.00208,0.000796,0.001332,-0.00093,-0.00261,0.003178,-0.000604,0.00234,0.002428
775.5,-0.00428,-0.001648,-0.003911,-0.000209,0.00461,0.001757,-0.000378,0.001171,-0.00085,0.003044,0.001958,0.001089,0.001133,0.000919,0.006101
775,0.000124,0.000702,-0.00416,0.000717,0.004783,0.006609,-0.000196,0.000142,0.002364,-0.000541,-0.002776,0.002291,-0.001195,0.000129,0.00236
774.5,-0.003175,-0.002013,-0.000432,-0.001255,0.004251,0.003635,0.000099,-0.000428,0.000042,-0.000136,-0.000993,0.000837,-0.001547,0.002918,0.002643
774,-0.00607,0.002386,-0.000894,0.001879,0.002421,0.002721,-0.001399,-0.000501,0.000818,-0.002067,-0.003338,-0.0015,0.00165,0.001143,-0.000212
773.5,0.001276,0.00206,-0.00027,0.000749,0.001006,0.004464,0.002807,0.001057,0.00122,-0.000487,-0.000218,0.003266,0.002009,0.000432,0.003801
773,-0.000453,0.000614,0.000715,0.000965,0.003219,0.001698,-0.000195,0.001399,-0.003155,-0.000575,0.00126,-0.000907,-0.000021,-0.003676,-0.002178
772.5,0.003261,-0.001962,0.000934,0.003993,0.005966,0.004114,0.000386,-0.000355,0.000614,-0.002117,-0.004596,-0.001369,0.000749,-0.002099,0.001768
772,-0.002217,-0.002343,0.0013,-0.001135,0.000998,0.002138,-0.001605,-0.00164,-0.000319,-0.000426,-0.000861,-0.000397,0.000773,0.00138,0.003698
771.5,0.000539,0.001545,0.004109,0.001718,0.002659,0.001662,0.000207,-0.000613,0.001338,-0.002723,-0.000317,-0.000802,-0.00099,-0.004004,-0.002206
771,-0.000958,-0.001328,0.001421,-0.001869,0.00358,0.008597,0.00375,-0.002791,-0.000842,0.000529,0.001492,0.001212,0.000946,-0.001084,0.000197
770.5,-0.00181,-0.004512,-0.001143,0.000884,0.000056,0.002348,-0.002466,0.002075,0.003472,0.003201,0.000723,0.000008,-0.002239,0.003076,0.003357
770,0.000575,0.002242,-0.001737,-0.002368,0.002529,0.004498,0.001398,0.001953,0.000721,0.000651,-0.001252,0.003292,0.00055,0.00207,0.004106
769.5,-0.000618,0.000277,0.001049,-0.002362,0.003837,0.001595,-0.001786,-0.000341,-0.003598,0.001452,0.001993,0.001565,0.001571,-0.002101,0.000374
769,-0.000147,-0.003157,-0.003649,-0.000853,0.002151,0.003648,0.002205,0.001154,-0.001201,-0.000644,0.000961,0.000888,0.000317,-0.001953,0.000066
768.5,-0.002566,-0.002283,-0.001101,-0.001653,0.000488,0.002979,-0.001947,0.000582,-0.002225,-0.002158,0.000045,-0.000001,-0.002542,-0.00131,0.001504
768,0.000524,-0.003138,0.002482,0.000987,0.004312,0.003621,-0.001379,-0.001352,-0.000162,0.000706,-0.002597,-0.00122,0.00056,0.001528,0.001101
767.5,-0.00227,-0.000451,-0.000072,-0.002813,0.003702,0.0037,-0.002432,0.001342,0.000421,-0.001493,-0.001878,0.000827,0.000957,0.001261,0.003788
767,0.001743,-0.000196,-0.002292,-0.000376,0.000607,0.003509,-0.001028,0.000099,-0.000356,-0.000959,-0.00044,-0.001725,-0.002141,0.001653,0.001325
766.5,0.002053,0.003209,-0.002906,-0.000753,0.000165,0.001954,-0.001378,-0.000595,-0.001536,0.002443,0.001232,0.000889,0.003009,0.002492,0.001091
766,0.000556,0.000417,-0.001466,0.003165,0.005466,0.003109,-0.000295,0.003568,0.003161,0.001131,0.0011,-0.001845,-0.00125,-0.00159,-0.001381
765.5,-0.00006,0.001313,-0.00302,0.000001,0.002434,0.00346,0.001502,0.00122,0.00083,0.000525,-0.001761,-0.002002,-0.001659,0.001247,0.00082
765,-0.001614,0.002827,-0.001937,-0.000386,0.001428,0.004124,0.001931,0.002758,-0.001084,-0.000263,0.001297,0.000239,0.000976,-0.000943,-0.000071
764.5,-0.000938,-0.002156,0.000411,0.000551,0.001979,0.005504,0.001658,-0.000003,-0.001312,-0.000205,-0.000848,-0.000588,-0.000877,-0.001417,-0.000316
764,0.000649,-0.001841,-0.001308,-0.001997,0.001313,0.001863,-0.002531,-0.000588,-0.001189,0.002983,0.000274,0.001312,0.00006,-0.000711,-0.000123
763.5,-0.000617,0.000283,-0.002465,0.000573,0.001045,0.004384,-0.001115,-0.000617,-0.003005,-0.000448,-0.001656,0.001887,0.000924,-0.000116,0.00155
763,0.001525,0.001498,0.002305,0.000932,0.000762,0.004422,0.001912,0.001733,0.001152,0.001122,0.001412,0.000741,0.001179,-0.000091,-0.000017
762.5,0.000859,0.001501,-0.000218,-0.003183,-0.000519,0.002396,-0.000749,0.000016,-0.000702,-0.000395,-0.000566,0.000786,-0.000882,0.00081,-0.000088
762,-0.000539,-0.000451,-0.000827,0.000629,0.002459,0.00474,0.000093,0.000032,-0.000701,0.001616,0.001665,0.004173,0.000014,-0.002362,-0.001196
761.5,-0.000857,-0.000759,-0.000532,-0.001457,0.001573,0.005185,0.001522,0.001719,0.000346,0.002402,0.00158,-0.000816,0.00143,0.000709,0.003166
761,-0.000934,-0.000191,0.001184,-0.000678,0.002606,0.001428,-0.001539,-0.000496,0.001304,0.000978,0.001546,0.001118,-0.000011,-0.001538,-0.001026
760.5,0.001007,0.001892,-0.000653,-0.001914,-0.001288,0.003392,-0.003158,-0.000614,-0.00281,-0.000172,-0.002435,-0.000605,0.001063,-0.000464,0.002078
760,-0.000551,0.001065,-0.00279,-0.002713,0.002857,0.000481,-0.004216,0.001542,0.000507,0.001188,0.001219,-0.000694,-0.002241,0.002833,-0.000266
759.5,-0.000153,0.0009,0.000563,-0.001039,0.001323,0.002692,-0.000266,-0.0007,-0.000804,0.001177,0.001979,-0.001472,0.000636,0.000049,0.00106
759,0.000001,0.001351,0.000237,0.000388,0.002563,0.004362,-0.00093,0.002245,0.000845,0.001094,0.000674,-0.000632,0.000061,-0.000728,-0.001055
758.5,-0.000183,0.001575,-0.000173,-0.00508,0.000119,0.003206,0.001488,-0.001591,-0.002633,-0.000812,-0.002527,-0.000464,-0.000961,-0.002493,-0.002637
758,-0.00049,-0.000133,-0.002567,-0.000753,0.003575,0.000466,0.000569,0.001429,-0.000343,0.001242,0.001754,-0.00061,-0.001263,-0.00131,0.000981
757.5,-0.001212,0.001616,-0.000053,-0.001318,0.001826,0.003475,0.000975,0.002575,-0.001157,0.001434,-0.000309,-0.000102,0.001152,-0.001072,0.000779
757,0.003584,0.002399,-0.001082,-0.001001,-0.000401,0.004825,0.001195,0.003197,0.001249,-0.000333,0.00151,0.000525,-0.00109,0.000767,0.001703
756.5,0.001604,0.000603,0.002778,-0.002832,0.000219,0.001309,0.000368,0.001616,0.000341,-0.00166,-0.003267,-0.001173,-0.002586,-0.001904,0.001711
756,-0.000825,-0.001605,-0.001004,-0.001438,0.002009,0.003308,-0.000048,0.003756,0.002187,0.001004,-0.00171,0.000137,0.000849,0.000236,0.003505
755.5,-0.000624,-0.000783,-0.000314,-0.002312,0.002997,0.004209,0.000008,-0.0025,-0.000783,0.001388,0.001698,0.002624,-0.000579,-0.003059,-0.000893
755,-0.000807,-0.001298,-0.002388,-0.001701,0.002864,0.004285,0.003083,0.000571,-0.002206,-0.000921,-0.000365,-0.003662,0.001143,0.000189,0.001582
754.5,0.002892,-0.000052,0.001767,-0.002638,0.002498,0.000922,-0.000933,0.000255,-0.001217,0.00325,-0.000044,0.001283,-0.00176,0.000883,-0.000573
754,-0.00261,-0.001245,-0.001466,-0.003929,0.002588,0.004717,0.000888,0.000084,-0.002518,-0.001729,-0.001784,-0.000688,0.000405,-0.001466,0.001512
753.5,0.000526,0.002135,-0.000569,-0.000983,0.003129,0.005609,0.002359,-0.005201,-0.003671,0.000333,-0.000672,-0.002455,-0.00166,0.001507,0.000739
753,0.000745,0.000584,-0.000236,-0.000422,0.001726,0.003086,0.000096,-0.001253,-0.000393,-0.000897,-0.0005,-0.000398,0.00043,0.002314,0.001932
752.5,-0.000627,0.000831,-0.001138,-0.000912,0.001099,0.00313,-0.000114,-0.001089,-0.001427,-0.000588,-0.000228,-0.000938,-0.005968,-0.000553,0.001346
752,0.002665,0.002133,-0.003767,0.000567,0.003452,0.003311,0.000526,-0.00243,-0.002429,0.002077,-0.0001,0.001805,0.000653,-0.00123,0.0006
751.5,-0.000356,0.000635,-0.002938,-0.000745,0.003809,0.003865,0.000652,0.002057,0.002419,0.00048,-0.001303,0.000081,0.001355,-0.002317,-0.000952
751,0.001529,0.00186,-0.000034,-0.000089,0.002886,0.003975,0.001217,-0.000952,-0.001214,-0.003974,-0.002288,-0.002421,-0.001184,-0.001092,-0.001263
750.5,0.000064,0.002091,0.000265,0.000102,0.002169,0.001776,-0.003029,-0.001122,-0.00118,-0.002267,-0.002004,-0.000872,-0.001339,-0.000753,0.004642
750,-0.001201,-0.001804,0.000031,-0.000315,0.000815,0.004516,0.000195,-0.002194,-0.001973,-0.002028,-0.001824,0.00462,0.002589,-0.001029,0.002195
749.5,0.000563,0.001888,0.000795,-0.000035,0.001261,0.002647,-0.000575,0.002652,0.00088,-0.002837,0.000099,0.000326,-0.000515,-0.003227,0.000154
749,0.001578,-0.00016,-0.002316,-0.002024,0.001917,0.003698,0.000335,-0.000723,0.000779,0.000558,0.003688,0.000792,0.000414,0.00052,0.000781
748.5,0.000669,0.000489,0.000863,-0.001903,-0.0006,0.005104,0.002206,-0.001271,-0.002669,0.000096,-0.000673,0.001187,0.001905,-0.001552,-0.000755
748,-0.00074,-0.001241,-0.001618,-0.002265,0.001245,0.003129,-0.000507,-0.000251,-0.001325,-0.002463,-0.000077,-0.000691,0.000087,0.00137,0.002189
747.5,0.000031,-0.000335,-0.001263,-0.000007,0.002092,0.004285,-0.000126,0.004346,-0.002094,0.000344,-0.001241,0.001251,-0.001268,-0.003089,-0.000684
747,0.001316,0.001569,0.000918,-0.002011,0.000517,0.001699,-0.001957,-0.00058,-0.001253,0.004127,0.002753,0.000061,0.000246,0.000847,0.001066
746.5,-0.002058,-0.002574,0.000618,-0.001882,0.003159,0.00391,0.001669,0.00135,0.000155,0.000849,-0.000062,0.000878,-0.000726,-0.003379,-0.003594
746,0.000665,0.001836,0.001982,-0.00136,0.001432,0.004241,0.002392,-0.001323,-0.002903,0.00207,0.004299,0.000714,0.000341,-0.002143,-0.001022
745.5,0.000397,0.001281,-0.002518,-0.000649,0.00216,0.003315,0.00139,0.001691,0.000245,0.000137,0.001461,-0.003563,-0.002729,-0.000421,-0.000789
745,-0.002991,-0.00058,-0.000514,-0.001112,0.001671,0.002906,0.00241,0.001587,-0.000547,-0.001974,-0.002784,0.00264,0.000678,-0.000885,0.003197
744.5,0.0001,0.001143,0.000853,-0.001097,-0.000448,0.002062,-0.00014,0.000976,0.000242,0.001121,-0.001427,0.000067,-0.001787,-0.002551,0.000532
744,-0.002637,-0.00101,0.001881,0.002121,0.006109,0.000477,0.000324,0.000843,0.00148,-0.000147,-0.000375,-0.000763,-0.000444,-0.002916,-0.000237
743.5,-0.000924,-0.000641,0.002203,0.000289,0.003738,-0.000683,-0.004477,-0.000909,-0.002558,0.000966,0.001446,0.000176,-0.001847,-0.000884,-0.000741
743,-0.000537,0.000684,-0.002995,0.001281,0.001697,0.00564,0.000936,0.001357,-0.000768,0.002187,-0.00026,0.001405,-0.001091,-0.000235,0.000349
742.5,0.001218,0.00137,-0.001023,-0.000954,0.003541,0.003518,0.001542,-0.001965,-0.001853,0.002058,0.00048,0.000473,-0.00091,0.00147,0.001526
742,-0.000765,0.001722,0.000962,-0.000856,0.00342,0.003648,-0.000109,-0.001121,-0.001443,0.000108,0.001092,-0.000156,-0.000305,0.000469,-0.001273
741.5,-0.000906,0.000157,-0.002608,0.001218,0.002541,0.002973,-0.000215,-0.002354,-0.002766,-0.001869,0.000313,-0.000192,-0.000949,-0.001607,0.001389
741,-0.00103,-0.000973,0.001034,-0.001523,0.002084,0.002685,0.000045,-0.00048,-0.002871,-0.000634,0.001328,0.000934,0.001972,0.000773,0.001996
740.5,-0.000827,-0.000999,0.000118,-0.003042,0.002346,0.001529,-0.001695,-0.001548,-0.001088,0.002593,0.001598,0.000136,-0.002481,0.000031,0.001179
740,0.000204,0.004163,0.001582,-0.003519,0.001334,0.00174,-0.000788,-0.002148,-0.002003,0.000692,-0.000001,0.000633,0.00084,0.000822,0.002544
739.5,-0.000909,-0.001894,-0.003009,0.000298,0.003747,0.000949,-0.001234,-0.001402,0.000442,0.000864,-0.000071,0.000795,0.002563,0.000413,0.000113
739,0.002737,0.000938,0.000217,-0.000793,0.003619,0.003633,-0.001674,-0.00054,0.000582,0.0015,0.001005,0.001819,-0.000996,0.002324,0.002628
738.5,-0.001628,-0.000259,0.000536,0.001283,0.003773,0.00514,0.002592,0.000405,-0.001114,-0.000246,-0.001104,0.001747,0.000682,0.000137,0.002204
738,0.001309,0.002629,-0.000174,0.000385,0.001097,-0.000043,-0.002104,0.000366,-0.001501,0.000547,0.001461,0.00175,0.002267,0.00096,0.001882
737.5,0.001117,0.000738,0.000311,0.000641,0.004055,0.004097,-0.001229,-0.001501,-0.002326,-0.000166,0.00113,0.000974,0.000151,0.000872,0.001106
737,0.000885,0.000136,-0.00222,-0.002759,-0.000308,0.002891,0.001162,0.000086,-0.000621,-0.001524,-0.001207,0.001055,0.003137,-0.002098,0.000228
736.5,-0.0025,-0.001827,-0.000492,-0.000521,0.004349,0.001473,-0.000926,0.00045,0.000723,-0.000939,-0.001667,-0.002384,-0.001335,-0.001696,-0.000833
736,-0.001497,0.001431,-0.004819,-0.003285,0.000889,0.005228,0.001274,0.002953,0.000182,0.000125,0.001978,0.000269,0.000991,-0.001106,-0.0017
735.5,0.000128,0.001957,0.000945,0.000416,0.004938,0.002173,-0.00128,0.001355,0.001501,0.000162,0.000068,0.002055,0.002215,0.001565,0.002192
735,-0.000349,-0.001321,0.000859,-0.001663,0.001806,0.003684,0.000945,0.001547,-0.000521,-0.001866,-0.000548,-0.001009,-0.000159,0.001648,0.003579
734.5,-0.002471,0.001261,-0.000647,0.00074,0.004369,0.005102,0.00292,0.001586,-0.00032,0.000265,-0.000791,-0.001647,-0.000067,-0.001543,-0.001719
734,0.00075,0.001342,-0.000522,-0.000456,0.003644,0.001711,-0.000569,0.001939,0.000437,-0.001457,-0.001566,0.000735,0.000425,-0.000111,0.000446
733.5,0.00274,0.001118,0.000282,-0.002042,0.002598,0.001283,-0.000416,-0.000564,-0.001798,-0.000639,-0.000259,0.000069,-0.00015,-0.0013,0.001001
733,0.000831,0.000488,-0.001152,-0.001589,0.002898,0.002372,-0.000638,-0.000407,-0.001721,0.000646,-0.000621,0.002201,0.0028,-0.00091,0.000996
732.5,0.002458,0.00045,0.00195,-0.000535,0.002908,0.003632,0.001933,-0.000174,-0.000029,0.003504,0.001054,0.000585,0.000394,-0.0009,-0.000017
732,0.00051,-0.001112,-0.001956,0.000567,0.003839,0.002144,0.000767,0.001135,-0.000543,0.000507,-0.001493,-0.000938,-0.00028,-0.001513,-0.000183
731.5,0.001233,0.000024,-0.001289,-0.001152,0.001365,0.004359,0.000156,-0.00092,-0.001541,0.000657,-0.000388,0.00026,-0.000574,0.000337,0.000849
731,0.000494,0.001294,0.000014,-0.001496,0.000354,-0.000161,-0.002625,-0.000781,-0.001319,0.001405,0.000894,-0.000238,-0.001036,-0.000192,0.000467
730.5,0.002568,0.00017,-0.001476,0.000446,0.002776,0.001213,-0.001054,0.003416,0.000893,0.002222,-0.001073,0.001695,-0.000765,0.000809,0.001213
730,0.000156,-0.0004,-0.002279,-0.001791,0.002273,0.002346,-0.000449,0.000831,0.000147,-0.001818,-0.001855,0.000173,0.001041,-0.003719,0.000675
729.5,0.000958,-0.001506,-0.00003,0.000395,0.001367,0.003323,-0.00068,-0.000228,-0.001107,-0.00003,-0.00106,-0.000549,-0.002932,-0.00088,-0.000938
729,-0.000507,-0.000617,-0.002376,-0.00253,0.00262,0.004605,-0.00067,0.000185,0.000613,-0.00066,-0.000963,0.002845,0.001942,0.000335,0.001145
728.5,0.001505,0.001234,0.000249,-0.00024,0.002454,0.003455,-0.001243,-0.000485,-0.000894,-0.000212,-0.000494,-0.000597,-0.000621,-0.000949,0.000066
728,0.000589,-0.000267,-0.002036,-0.000886,0.004239,0.003714,-0.000146,0.00249,-0.000004,-0.000473,-0.00105,0.000747,0.000827,-0.00046,0.000814
727.5,-0.003024,-0.00162,-0.001812,-0.00081,0.002134,0.0027,-0.000816,-0.000141,-0.002465,0.002057,-0.000084,0.000157,0.000847,-0.001307,0.001976
727,0.000942,0.000145,0.001572,-0.000727,0.001366,0.002507,-0.001177,-0.000462,0.001145,0.001075,0.001797,0.001414,0.000766,0.000483,0.001424
726.5,-0.001126,-0.00164,0.000877,-0.000021,0.001387,0.005291,0.000431,-0.000322,-0.00008,0.001292,0.000393,0.000116,-0.000442,0.000737,0.001667
726,-0.00013,-0.000486,-0.000739,-0.003003,0.000845,0.003578,-0.001424,-0.000188,-0.001597,0.003711,0.002072,0.001107,0.00043,-0.001239,-0.000056
725.5,-0.001732,-0.0007,-0.000945,0.000658,0.0034,0.002421,-0.002123,-0.003926,-0.003123,-0.000547,0.000322,0.000282,0.000399,-0.000116,0.001001
725,0.000444,-0.000491,-0.00165,-0.003259,0.001195,0.002615,-0.000109,-0.000449,0.000446,-0.000267,0.000611,-0.002557,-0.001798,-0.00063,0.001152
724.5,-0.00098,-0.00094,-0.000974,0.002195,0.004315,0.003126,0.001164,0.000194,0.001063,0.000124,0.000091,-0.001438,-0.002847,-0.001743,-0.000163
724,-0.000849,-0.001155,-0.001825,-0.001287,0.000827,0.004981,0.000054,-0.000355,-0.000782,-0.000077,-0.001331,0.000371,0.000818,0.000981,0.001472
723.5,0.001443,0.001696,-0.001885,-0.0017,0.001684,0.002443,-0.001722,0.000732,-0.000587,-0.000045,0.000019,-0.000146,-0.001229,-0.000207,-0.000475
723,0.000042,-0.00185,0.001164,-0.002811,0.002867,0.001111,-0.001568,-0.000693,0.001618,-0.001941,-0.002322,-0.000584,0.001702,-0.001948,0.001322
722.5,-0.001705,0.000692,-0.001732,0.000109,0.002525,0.002651,0.000047,-0.000732,-0.000495,0.000228,0.000142,-0.000052,0.000415,-0.000277,0.000809
722,-0.000796,0.002199,-0.000342,-0.002513,0.003351,0.004652,-0.000196,-0.001596,-0.000912,0.002978,0.001451,0.000819,0.000598,-0.000829,0.001783
721.5,0.000926,0.000886,-0.000839,-0.001454,0.000937,0.004089,-0.000393,-0.001413,0.000275,-0.001245,0.001224,-0.000321,-0.000684,-0.002036,0.000891
721,0.002196,0.001209,0.00165,0.00042,0.003956,0.004329,0.000377,-0.001214,0.000436,0.001129,-0.000515,-0.000501,0.000233,0.001393,-0.000286
720.5,-0.001304,0.00174,0.001253,-0.001606,0.001,0.004657,-0.000655,-0.001668,-0.001566,-0.001194,-0.000013,-0.001722,-0.000467,0.001153,0.000143
720,-0.000373,-0.00136,-0.002786,0.00064,0.002568,0.001817,-0.000118,0.002081,0.00101,0.001114,0.001073,0.000468,0.000871,0.000439,-0.000218
719.5,0.001711,0.002438,0.000334,-0.001253,0.00198,0.002595,-0.001909,-0.000111,0.000544,0.000613,-0.001499,-0.001189,-0.000951,-0.000378,0.000169
719,-0.002147,-0.000677,-0.00179,-0.001268,0.001699,0.001585,-0.002287,0.002073,-0.00023,0.001792,0.001104,0.002547,0.001562,-0.001485,0.001801
718.5,-0.001168,0.000419,0.000675,0.000986,0.003479,0.004446,0.000462,0.00047,-0.00286,-0.001825,-0.00382,0.003024,0.00016,0.000558,0.002553
718,-0.00184,-0.000753,-0.001257,0.001551,0.004359,0.003702,0.000654,0.001762,-0.000122,-0.000712,-0.002037,0.001349,0.000629,0.000982,0.001852
717.5,0.00025,-0.001469,-0.004404,-0.001585,0.002037,0.00265,-0.00066,0.000805,-0.000093,0.000045,-0.001621,-0.00042,0.000299,0.0003,0.001442
717,-0.00038,-0.001004,-0.002244,-0.000251,0.002205,0.005118,0.001356,-0.000574,0.000157,0.000601,-0.000922,-0.000338,-0.001512,0.00094,0.00154
716.5,-0.000685,-0.001372,0.00096,-0.002586,0.001968,0.004195,0.001236,-0.002269,-0.000446,0.000116,0.001323,-0.001524,0.000833,-0.001206,-0.000985
716,-0.000414,-0.001505,-0.000223,-0.001044,0.000601,0.003603,0.00008,0.000735,-0.000192,0.00062,0.003155,-0.001283,-0.000122,-0.000972,0.000387
715.5,0.000708,0.000273,0.001069,0.001007,0.003982,0.002477,0.00028,0.000295,-0.000085,-0.000013,0.00146,-0.000477,-0.000801,-0.001094,-0.00109
715,-0.000859,-0.000767,-0.001737,-0.000465,0.002935,0.001992,-0.001164,-0.001236,-0.001983,0.000587,0.000345,-0.000824,0.000227,-0.002007,0.000703
714.5,0.000885,-0.000181,-0.002124,0.001042,0.00334,0.003433,-0.000162,0.000445,-0.000596,-0.000299,-0.001733,-0.000234,-0.000027,-0.000875,-0.000444
714,-0.001381,0.000207,-0.000356,-0.000596,0.002116,0.003645,0.001064,0.000613,0.000865,-0.00049,-0.000236,-0.000437,0.000559,0.000178,0.000346
713.5,0.000678,0.001051,-0.000005,-0.002054,0.001211,0.002686,-0.000014,-0.000125,-0.001057,-0.000775,0.000594,-0.000083,0.000686,-0.000641,-0.000201
713,-0.000917,-0.002684,-0.000302,-0.001638,0.002427,0.004417,-0.001163,-0.000407,0.000027,0.00014,-0.000583,-0.000917,-0.000526,0.001342,0.003207
712.5,0.000828,0.000271,0.000449,0.000122,0.004318,0.003906,0.000165,-0.0005,-0.000946,-0.002575,-0.002585,0.000144,-0.000743,-0.000668,-0.00136
712,-0.002631,-0.00168,-0.000311,-0.000627,0.00407,0.000553,-0.000543,-0.001129,-0.001898,0.000316,-0.000459,-0.00137,0.000203,-0.002297,-0.002483
711.5,-0.000048,-0.001435,-0.001006,-0.000826,0.003506,0.003514,0.000712,0.000934,-0.000492,-0.000111,-0.000623,-0.00058,0.000155,-0.001793,0.001307
711,-0.000045,-0.001703,0.000611,-0.002311,0.002547,0.00326,-0.000836,0.000161,0.000364,-0.000607,-0.000691,0.00113,0.000686,-0.001271,0.000107
710.5,0.001419,0.001556,-0.001538,-0.000797,0.002419,0.00368,0.001737,0.000122,-0.000631,-0.001015,-0.000974,0.001059,0.001849,-0.000524,0.000363
710,0.001661,0.000797,-0.000143,-0.003276,0.000335,0.00312,0.001028,0.002167,0.000223,-0.0028,-0.002065,-0.000558,-0.000474,-0.001294,0.000381
709.5,-0.000023,0.000821,-0.000796,-0.002227,0.000998,0.00324,-0.001073,0.001223,0.000331,-0.000938,-0.001271,0.000185,-0.000505,0.000148,0.001626
709,0.000582,0.000074,-0.000422,-0.000974,0.002122,0.00289,0.000345,0.000467,-0.000364,0.000487,0.001448,0.000751,0.000805,-0.00147,-0.000836
708.5,0.000989,0.002258,-0.001309,-0.00049,0.003088,0.004505,-0.00163,0.00112,-0.001182,0.001974,0.001467,-0.000901,-0.000525,0.000897,0.002152
708,0.002487,0.00042,0.000629,0.000885,0.004289,0.002611,-0.001598,-0.000954,-0.001428,-0.000914,-0.001339,0.001266,0.001277,-0.000873,0.000789
707.5,-0.001701,-0.000772,-0.002272,-0.000675,0.002514,0.002503,0.000782,-0.001337,-0.000701,0.000568,0.002028,-0.000528,-0.001566,0.000817,0.000194
707,0.001372,0.001423,-0.000959,0.000967,0.002782,0.003363,-0.000954,0.000733,0.000956,-0.001738,-0.001309,0.000708,0.002582,-0.000042,0.000872
706.5,0.003201,0.00227,0.000305,-0.000876,0.002117,0.004209,0.000862,-0.000477,-0.002402,0.003247,0.001279,0.000498,0.000683,-0.000597,0.002234
706,0.001649,0.000632,-0.00179,0.000371,0.003632,0.004629,-0.001141,0.000586,0.001476,-0.001141,-0.000027,0.000999,-0.00202,-0.00243,-0.000084
705.5,-0.001424,-0.001544,0.00163,-0.00147,0.003438,0.003461,-0.000527,0.000257,-0.000959,-0.000647,0.00015,-0.000249,0.000048,0.000823,0.000172
705,0.000964,-0.000336,-0.001146,-0.000027,0.003365,0.001984,-0.000869,0.000789,-0.000856,-0.00012,0.000272,-0.000147,0.001107,0.000151,0.001932
704.5,0.000081,0.000535,-0.002202,-0.000824,0.002597,0.002202,0.000367,-0.001199,-0.001487,0.000923,0.000654,0.000063,0.000918,-0.001104,0.001794
704,0.000268,0.001324,0.000714,0.00015,0.002933,0.002053,-0.00015,0.001432,-0.000721,0.000522,-0.000704,-0.000703,-0.001352,-0.000084,0.001081
703.5,0.000138,0.000759,-0.000266,-0.001277,0.002629,0.00509,0.001764,-0.001464,-0.001462,0.000121,-0.001145,-0.000207,-0.001645,-0.002347,-0.000364
703,-0.000026,0.000447,-0.001232,0.000538,0.001867,0.003128,-0.001223,0.000163,-0.000533,-0.002058,-0.00211,0.001882,0.000158,0.000279,0.001198
702.5,0.000374,0.00119,-0.001493,-0.00084,0.001792,0.004137,0.000078,0.002169,-0.000103,-0.000397,-0.000613,-0.001016,-0.001092,-0.001662,0.001384
702,0.000681,-0.000538,-0.000335,-0.002207,0.002386,0.002808,-0.000137,0.002411,-0.000212,-0.000495,0.000129,-0.001188,-0.000896,-0.001502,0.000527
701.5,-0.001184,0.00016,-0.000789,-0.000391,0.002459,0.002292,-0.000705,-0.000042,0.000785,-0.00175,-0.001461,-0.000016,-0.000203,0.001695,0.002709
701,-0.001612,-0.000892,0.001019,-0.00069,0.002753,0.002974,-0.001442,-0.000149,-0.00138,-0.000072,0.000124,0.00019,0.000691,0.000632,0.0013
700.5,0.000635,-0.000067,0.0005,-0.000627,0.002335,0.002651,-0.000256,-0.000112,-0.000457,-0.000498,-0.001217,0.000436,-0.000174,-0.000898,0.001254
700,0.001095,0.001604,-0.000893,-0.000771,0.001269,0.002826,0.00016,-0.000255,-0.000704,0.000324,0.000742,0.000816,0.000344,0.000761,0.00126
699.5,0.000448,-0.000211,-0.001404,-0.000968,0.002827,0.003524,-0.001433,0.000435,0.000345,0.000957,0.000711,0.001202,0.000981,-0.000217,0.000707
699,-0.00021,0.000427,-0.000472,-0.001434,0.001849,0.002526,-0.000983,-0.000851,-0.001218,0.001006,0.000144,0.000744,-0.000464,-0.000546,0.000324
698.5,0.001019,0.000546,0.000213,0.000082,0.00211,0.003227,-0.000553,-0.000031,-0.000721,-0.000647,0.000454,0.001064,0.001428,-0.000975,0.000557
698,0.000679,-0.000155,-0.000088,-0.001692,0.001417,0.002845,0.000237,-0.000995,-0.001421,-0.001112,-0.001207,-0.000378,0.000659,0.000196,0.001051
697.5,-0.000142,-0.000042,-0.001129,-0.001105,0.001653,0.002915,0.000059,0.000316,-0.000044,-0.000092,-0.000996,0.000355,0.000715,-0.00053,0.00162
697,0.000194,0.00073,-0.001085,-0.002597,0.003203,0.003857,-0.000339,-0.000161,0.00008,0.000061,-0.00062,-0.00001,0.000069,-0.000676,0.000879
696.5,0.001208,0.001487,-0.000284,-0.000216,0.002303,0.002358,-0.001763,-0.0002,0.000201,0.000281,-0.000284,-0.000027,-0.000173,-0.000005,0.001489
696,0.000852,0.000759,-0.000925,-0.001244,0.00241,0.00146,-0.001819,-0.001035,-0.00126,-0.000585,-0.001167,-0.001138,0.000045,-0.000705,0.0009
695.5,0.000319,0.000203,-0.001415,-0.000131,0.003167,0.003761,-0.000925,0.000289,-0.000385,0.0006,0.000556,-0.000054,-0.000287,-0.000967,-0.00032
695,0,0.000407,0.000209,-0.001246,0.001536,0.003358,0.000414,-0.002011,-0.004072,-0.000531,-0.000441,-0.000509,-0.000733,-0.000397,0.000959
694.5,-0.001439,-0.00114,-0.00015,-0.00094,0.001748,0.003306,-0.000839,0.000653,-0.00073,-0.000267,0.000571,0.0006,-0.001411,-0.001811,-0.000551
694,-0.001142,0.000008,-0.000648,-0.002321,0.000949,0.003105,-0.000408,0.000951,0.000009,-0.000999,-0.00162,0.000014,0.000001,0.000958,0.000861
693.5,-0.000062,-0.000415,0.000267,-0.000735,0.002438,0.003485,0.001329,0.000523,0.00115,0.00093,0.000779,-0.000544,-0.00094,0.001322,0.001829
693,0.000257,0.000106,-0.000045,-0.001871,0.001681,0.002607,-0.000421,-0.001334,-0.000638,0.001435,0.00066,-0.000179,-0.000168,-0.00097,0.001274
692.5,-0.000717,0.000158,0.000744,-0.001697,0.002379,0.004013,0.000059,-0.001496,-0.001483,0.0014,-0.000163,0.001072,0.000287,0.000303,0.002759
692,-0.000336,-0.000807,-0.001561,0.000142,0.002929,0.003042,0.000494,-0.001232,-0.00117,0.000089,0.000272,-0.000837,-0.000328,-0.001531,0.000433
691.5,-0.000274,0.001123,-0.000787,-0.000644,0.002845,0.004151,-0.000266,-0.000248,-0.001348,0.000176,-0.000531,0.000191,-0.000172,-0.000336,0.000903
691,0.000429,0.000791,-0.000757,-0.001878,0.001084,0.003441,-0.000319,-0.001948,-0.002605,-0.000652,0.000199,0.000505,0.000284,-0.000727,0.001176
690.5,0.00006,-0.000828,-0.000296,-0.000552,0.00263,0.003234,0.000816,-0.000264,-0.00041,-0.000911,-0.000273,0.00079,-0.00005,-0.000949,0.001884
690,0.000345,0.000643,-0.000949,-0.001094,0.002632,0.002788,-0.000367,0.000493,-0.000127,0.0003,0.000095,0.000401,-0.000337,-0.000875,0.001228
689.5,-0.000091,0.001022,0.000022,-0.000513,0.002979,0.005017,0.000742,-0.000907,-0.000993,-0.000325,0.001041,0.000214,-0.000296,-0.001675,0.000444
689,0.000952,0.000914,-0.000638,-0.000331,0.003449,0.003424,-0.000325,0.000015,0.000343,0.000035,-0.000122,0.001441,0.000925,-0.000842,0.002078
688.5,-0.000655,-0.000618,0.000497,-0.001308,0.002838,0.00393,0.001656,0.00004,-0.000525,0.000095,-0.000001,0.001072,0.000279,0.000163,0.001642
688,-0.000433,-0.00125,-0.000578,0.000728,0.003908,0.002165,-0.001644,-0.001014,-0.001024,0.00036,-0.000735,0.001495,0.000793,-0.000413,0.000246
687.5,0.000962,0.001101,-0.001594,-0.001333,0.001453,0.002947,-0.001163,-0.000363,-0.000342,0.000011,-0.00024,0.000345,-0.000281,-0.000534,-0.000027
687,0.00016,-0.000393,-0.001214,-0.000604,0.002592,0.001975,-0.000781,-0.000254,-0.000803,-0.000083,-0.000118,0.000363,0.001262,-0.000628,0.001891
686.5,-0.000205,-0.000027,0.000039,-0.000793,0.002399,0.002733,0.000205,-0.00064,-0.000938,0.000741,-0.000079,0.000691,0.000027,-0.001544,0.000665
686,-0.000591,-0.000695,0.000043,-0.001094,0.002574,0.00369,-0.000307,-0.000404,-0.000651,0.00028,-0.000096,0.000251,0.000547,-0.000977,0.000386
685.5,0.000517,-0.000247,0.000149,-0.000929,0.002537,0.003366,0.000496,-0.00128,-0.00093,0.000014,-0.000484,0.000241,0.000199,-0.000709,0.000257
685,0.000273,-0.000109,-0.00007,-0.000273,0.002437,0.004599,0.000298,-0.000719,-0.000984,-0.000138,-0.000228,0.001197,0.000653,-0.000121,0.000117
684.5,0.000193,0.000404,-0.00039,-0.001609,0.002485,0.003281,-0.000681,0.000853,-0.000795,0.000489,-0.000029,0.001123,0.001171,-0.000662,0.001281
684,-0.000561,-0.000324,-0.000667,-0.000591,0.002584,0.003475,-0.000549,0.000156,-0.000313,-0.000085,-0.000585,-0.000012,0.00017,0.000064,0.001288
683.5,-0.000619,0.001205,-0.000415,-0.000654,0.002487,0.002956,-0.000979,-0.000176,-0.001381,0.000386,-0.000368,-0.000127,-0.000387,-0.000788,0.000665
683,0.000118,0.000978,0.000388,-0.000658,0.002726,0.003109,-0.000351,0.000179,-0.000935,0.001557,0.000662,0.001,0.00017,-0.000872,0.000668
682.5,0.000333,0.000122,-0.001307,-0.000673,0.001967,0.003297,-0.000882,-0.000751,-0.001781,-0.000047,-0.000369,0.000365,0.000041,-0.000798,0.000681
682,0.000214,0.000589,0.000064,-0.00087,0.003161,0.003104,-0.000516,-0.000506,-0.000495,-0.000518,-0.000116,0.00115,-0.000074,-0.001082,0.000411
681.5,0.000088,0.000243,-0.000646,-0.000633,0.003139,0.002793,-0.000999,0.000338,-0.000835,-0.000183,-0.000538,0.00061,-0.000133,-0.000314,0.000948
681,-0.000266,-0.000514,-0.000448,-0.001223,0.002877,0.002764,-0.000053,-0.000182,-0.000845,-0.000267,-0.000033,0.000568,0.000907,-0.000329,0.001251
680.5,0.000096,0.00131,-0.000711,-0.000741,0.002384,0.002332,-0.000492,-0.000683,-0.000312,0.000359,-0.000096,0.000964,0.00042,-0.000252,0.000226
680,-0.000098,0.001176,-0.000773,-0.002028,0.00154,0.002931,-0.001171,-0.000118,-0.000586,-0.000597,0.000054,0.000158,-0.000014,0.000615,0.001958
679.5,-0.000847,0.000411,-0.000124,-0.001678,0.001476,0.003367,0.0008,-0.000218,-0.000511,-0.001175,-0.001119,-0.000237,-0.000423,-0.000715,0.000396
679,0.000926,0.00067,-0.00055,-0.000851,0.002497,0.002799,-0.000029,-0.00054,-0.000357,-0.000486,0.000166,-0.000151,0.000579,-0.000266,0.001153
678.5,0.000135,0.000031,0.00031,-0.001455,0.001945,0.00272,-0.000274,-0.000503,-0.001099,0.000476,0.000195,-0.000317,0.000546,-0.00161,0.000392
678,-0.000425,-0.000384,-0.000536,-0.000742,0.002,0.002819,-0.000965,-0.000286,-0.000734,0.00027,0.000485,0.001101,-0.000342,-0.000736,-0.000171
677.5,-0.000466,0.000375,-0.000689,-0.00147,0.001836,0.002338,0.000088,-0.000326,0.000311,0.000751,-0.000051,0.000764,-0.000165,-0.000686,0.001131
677,-0.000096,0.000288,-0.000687,-0.000351,0.002289,0.004073,0.000022,-0.000057,-0.000761,-0.000588,-0.000518,0.001266,0.001076,-0.000808,0.000431
676.5,0.000369,0.000086,-0.000562,-0.000013,0.002855,0.002992,0.000342,-0.0013,-0.000921,-0.00041,-0.000174,0.001131,0.000895,-0.000311,0.000871
676,-0.000306,0.000003,-0.000733,-0.000286,0.003702,0.003591,0.00018,-0.000839,-0.001757,-0.000005,-0.001175,0.000951,0.000762,-0.001159,0.000074
675.5,0.000025,-0.000316,-0.000014,-0.000749,0.002697,0.004068,-0.000257,0.000234,-0.00033,-0.000392,-0.000918,0.00034,0.000316,-0.00089,0.001117
675,-0.000227,-0.000908,0.00045,-0.000648,0.003347,0.003595,0.000113,-0.00035,-0.000909,-0.001093,-0.000446,0.000466,0.000923,-0.000191,0.001195
674.5,-0.001125,-0.000129,-0.000689,-0.00125,0.002377,0.003909,0.001133,-0.000006,-0.000101,0.000132,-0.000156,-0.000402,0.000003,-0.000281,0.00053
674,0.00035,0.001461,-0.000473,-0.000474,0.003255,0.00421,-0.000581,0.000259,-0.000995,0.001024,0.00089,-0.000004,-0.000542,-0.000773,0.000864
673.5,0.000304,0.000577,-0.000348,-0.001236,0.00197,0.003846,-0.000021,-0.000407,-0.001093,-0.000036,0.000224,-0.000596,-0.000787,0.000276,0.001863
673,0.000728,0.00098,0.000199,-0.001196,0.002531,0.002629,0.000311,-0.000381,-0.000765,-0.000606,-0.000635,0.000677,0.000158,-0.001272,-0.000531
672.5,0.000005,-0.000215,-0.000431,-0.002027,0.001004,0.003035,-0.000739,0.000062,-0.000943,0.000609,0.000751,0.001892,0.001167,-0.000156,0.001549
672,0.001092,0.000789,-0.000027,-0.001706,0.001605,0.003527,0.000542,-0.001528,-0.001809,-0.001082,-0.001207,0.000289,0.000661,-0.000109,-0.000123
671.5,0.000355,0.001089,-0.000327,-0.000944,0.001799,0.00233,-0.000419,0.000079,0.000403,0.000017,-0.000012,0.000397,0.000459,-0.000431,0.001127
671,0.001588,0.00083,0.000321,-0.000939,0.00237,0.00193,-0.00087,0.000293,-0.000403,0.000315,-0.000355,-0.000426,0.000114,-0.000131,0.002622
670.5,-0.001127,0.000608,-0.001113,-0.000909,0.003321,0.001631,-0.001245,0.000274,-0.000257,-0.000177,-0.000952,0.000829,0.000157,0.000135,0.001244
670,-0.000457,0.000461,-0.002192,-0.000016,0.002606,0.003101,0.00069,0.00004,-0.000014,-0.000356,-0.001031,0.00134,0.000969,0.000939,0.002859
669.5,-0.00089,0.000068,0.000558,0.000025,0.003904,0.002617,-0.000518,0.000297,0.000451,-0.001492,-0.001167,0.001521,0.000955,0.000012,0.000951
669,0.00122,0.000385,-0.001012,-0.0003,0.002784,0.003297,-0.000603,-0.001023,-0.000575,0.000397,-0.000347,0.000748,0.000672,-0.000633,0.00045
668.5,0.000759,-0.000802,-0.00105,0.000899,0.002093,0.003095,-0.001045,0.001704,0.000486,0.000829,0.000665,0.00005,-0.00029,-0.000391,0.000204
668,-0.000812,-0.001481,-0.000529,0.000499,0.004079,0.003904,-0.000841,-0.000004,-0.000659,-0.000981,-0.002355,-0.000611,0.001014,0.000981,0.000859
667.5,0.000263,0.001291,0.000584,-0.003836,-0.001101,0.002742,-0.000732,0.001369,0.000868,0.00021,0.000133,-0.00174,-0.001157,-0.001404,-0.002476
667,0.001131,0.00105,0.000412,-0.001165,0.001355,0.003481,-0.000719,-0.001511,-0.002369,-0.000006,-0.000874,-0.001163,0.000697,0.000709,0.001414
666.5,0.001496,0.001372,-0.001824,-0.000922,0.002339,0.003249,-0.000163,-0.001533,-0.001177,0.001383,0.000043,0.000685,-0.000278,-0.001704,0.000367
666,-0.00089,-0.001302,-0.001002,-0.002873,0.001682,0.00224,0.000954,-0.002221,-0.002837,0.00242,0.001781,-0.001065,-0.000605,0.000366,0.002725
665.5,0.000334,-0.000121,-0.0005,0.001084,0.003482,0.005108,0.000002,0.00029,0.001212,-0.000992,-0.000843,0.00199,0.000961,-0.000961,0.001064
665,0.001999,0.002603,-0.000108,0.001268,0.004158,0.004706,0.001924,-0.001978,-0.001394,-0.000171,0.000793,-0.000446,0.001778,0.001496,0.002037
664.5,-0.000359,0.000007,0.000271,0.000168,0.003159,0.003213,-0.001891,0.001443,-0.00149,-0.000085,0.000426,-0.000594,-0.00124,-0.000962,-0.000141
664,-0.000318,-0.00124,-0.000811,-0.000029,0.002818,0.003585,0.000764,0.000542,-0.000573,0.000586,0.001669,-0.000113,-0.001237,-0.001449,0.000368
663.5,-0.001497,-0.001074,-0.00001,-0.003065,-0.000469,0.002893,0.001185,-0.000062,-0.000893,-0.000217,0.000886,0.001133,0.001686,0.000044,-0.000042
663,-0.001419,-0.000373,-0.000604,-0.001164,0.00232,0.001566,-0.002437,-0.001625,-0.000981,-0.002498,-0.003208,-0.000688,0.000814,0.001093,0.002034
662.5,0.001308,-0.000137,-0.00376,-0.001775,0.000722,0.005803,0.000803,-0.000003,0.00008,0.000087,0.00004,0.001875,-0.000302,-0.002574,0.000728
662,-0.000328,-0.001028,-0.000111,-0.000146,0.002833,0.004052,-0.001187,0.001399,-0.000098,-0.001411,-0.001554,-0.001634,-0.002247,0.001338,0.000558
661.5,0.000358,0.000602,0.000342,-0.001277,0.001588,0.00407,-0.000796,-0.000178,0.000252,0.000845,0.000458,0.000056,-0.0005,0.000475,0.001938
661,0.000248,-0.000389,-0.001276,0.000667,0.004301,0.002941,-0.000715,0.000771,-0.0019,0.000133,0.00095,0.000037,0.000927,-0.001449,0.001014
660.5,-0.000042,-0.000698,-0.001358,0.000796,0.003587,0.00149,-0.000284,0.00064,0.001224,0.000462,0.000244,0.000066,0.000375,-0.000703,0.001118
660,0.002384,0.00096,0.000198,0.000159,0.001419,0.003304,-0.000342,-0.001894,-0.00255,-0.000633,0.001064,-0.000552,-0.000246,0.00012,0.00106
659.5,-0.000713,0.000118,-0.000265,-0.000523,0.001701,0.004418,0.00059,-0.000244,-0.000131,-0.000399,-0.001039,-0.000701,-0.000403,-0.001394,0.000989
659,0.000519,0.001045,-0.00098,-0.001657,0.002247,0.003948,-0.000251,-0.000356,-0.000421,-0.000522,-0.001482,-0.00014,-0.000284,-0.000911,0.001968
658.5,0.001749,0.001205,-0.0022,-0.001957,0.001846,0.00325,-0.000024,0.000091,0.000108,0.000556,0.000745,0.000763,-0.000017,-0.000029,0.001485
658,0.001052,0.001194,-0.000368,-0.002597,0.001876,0.00157,-0.002713,-0.000702,-0.001289,0.00046,0.000467,0.000323,0.000281,-0.002705,-0.001532
657.5,0.001246,0.000459,0.001145,-0.000696,0.002411,0.005695,0.002505,-0.001302,-0.001269,-0.001038,-0.001132,0.00144,0.00019,-0.000554,0.00102
657,-0.002193,-0.000709,-0.000233,-0.000894,0.003815,0.006332,0.00129,-0.001001,-0.001882,0.000016,0.002308,-0.000011,-0.000358,0.000459,0.001964
656.5,0.001459,0.001634,-0.000909,-0.002443,0.00095,0.004792,0.000312,0.001448,0.000715,-0.001326,-0.002197,0.000076,-0.0005,-0.000642,0.002188
656,0.000367,0.000057,0.000017,0.000335,0.002139,0.00186,-0.000279,0.001102,0.000611,0.00011,0.000311,0.000548,0.000167,-0.000989,-0.001053
655.5,0.001445,0.001198,-0.000318,0.000721,0.00284,0.005311,0.001946,0.000321,-0.001516,0.001214,-0.000959,-0.000417,-0.001157,-0.000302,0.00045
655,0.00066,0.001406,0.000965,-0.001445,0.003028,0.004235,0.000827,0.001271,0.00104,0.001755,0.000225,-0.00097,0.000888,-0.000425,-0.001578
654.5,0.00087,-0.000615,0.000988,-0.002899,0.002527,0.003252,-0.001089,0.000487,0.001193,0.000115,-0.000487,0.000056,-0.000706,-0.000786,0.002613
654,0.000546,0.002018,0.000234,-0.000541,0.003193,0.001135,0.000067,-0.000378,-0.001083,-0.000801,0.000141,-0.001271,-0.000473,-0.000042,0.000709
653.5,-0.000502,0.001333,0.000947,-0.000646,0.002411,0.003066,0.000271,0.000909,0.00059,-0.00031,0.001392,-0.001921,-0.00128,0.000579,0.000418
653,-0.000569,0.000157,-0.001263,-0.000876,0.001323,0.002816,-0.000316,-0.000376,-0.001629,-0.001925,0.000341,-0.000519,0.001035,0.003202,0.003351
652.5,-0.000101,-0.001389,-0.001444,-0.000744,0.002464,0.005046,0.000143,0.001514,-0.000733,-0.000191,-0.00043,0.000821,-0.000165,0.001845,0.001129
652,0.001381,0.000641,-0.001409,-0.002198,0.001564,0.001879,-0.002392,-0.000141,0.000391,0.001049,-0.001419,0.00076,-0.000151,-0.000843,0.001019
651.5,-0.00067,-0.000661,0.000077,-0.002659,0.001501,0.005453,0.001685,0.000178,-0.00004,-0.000338,-0.000664,0.001224,0.001374,-0.000731,-0.000404
651,-0.001451,-0.000007,-0.002141,-0.001635,0.002467,0.002837,-0.000841,-0.000118,0.000916,0.000887,0.00175,0.001887,0.001782,-0.001463,0.000487
650.5,0.000711,0.00127,-0.000653,-0.001019,0.001578,0.001535,-0.001478,-0.000075,-0.000542,-0.001037,0.000135,0.001189,0.001606,-0.001047,0.001535
650,-0.001234,-0.000623,0.000738,-0.003479,0.002004,0.003851,-0.002166,-0.00138,-0.002953,0.000157,-0.000487,0.00044,0.00001,0.000344,0.001927
649.5,-0.002025,0.001719,0.000045,-0.001458,0.001208,0.004374,0.000816,-0.000883,0.001276,-0.000559,-0.000006,0.00011,-0.000074,0.002755,0.002049
649,0.000065,-0.000101,-0.000183,-0.001749,0.002421,0.004705,0.000691,0.000822,-0.000063,0.001478,0.000922,0.000879,0.001029,-0.000285,0.000195
648.5,0.000277,0.000941,-0.002555,-0.00033,0.002677,0.001044,-0.001035,0.000009,-0.000524,-0.000447,-0.000743,-0.000786,0.000881,0.000654,0.002697
648,-0.001415,-0.001018,-0.000876,-0.001337,0.00366,0.000848,-0.001919,-0.001067,-0.001171,0.001281,0.000957,0.001038,0.00005,-0.000569,0.001962
647.5,-0.000952,-0.001094,-0.000228,-0.001203,0.003512,0.001587,-0.002425,-0.000708,0.001242,-0.00025,0.000794,-0.001481,-0.000796,0.001581,0.002312
647,-0.000365,-0.001367,-0.000789,-0.000662,0.001765,0.002964,0.000323,0.000703,-0.002118,0.001721,-0.001495,0.00174,-0.000311,-0.000577,0.001076
646.5,-0.001195,-0.000141,-0.001328,-0.002334,0.002272,-0.001237,-0.002682,-0.001385,-0.000063,-0.00062,-0.00256,0.001059,0.00051,-0.001559,-0.000067
646,-0.002395,0.000296,-0.001532,-0.00031,0.003381,0.00318,-0.002785,-0.001009,0.000396,-0.000804,-0.001755,0.002104,-0.000034,-0.001445,-0.000962
645.5,-0.000463,-0.000099,0.001003,-0.001468,0.001543,0.002857,0.000569,-0.001073,-0.001204,0.000492,0.000238,0.000144,-0.000893,0.000488,0.003225
645,-0.001365,0.00012,0.001636,-0.001718,0.002566,0.004559,-0.001297,-0.000095,-0.001012,-0.000611,0.000807,-0.001129,0.001286,-0.001037,0.00207
644.5,0.000489,0.000624,-0.000168,-0.000709,0.002938,0.003072,-0.00236,0.001041,-0.001124,-0.001613,0.000623,-0.001308,-0.001081,-0.00114,-0.000505
644,-0.001644,-0.000726,-0.001229,-0.000845,0.000535,0.005207,0.000509,0.000719,0.000585,-0.00025,-0.000825,0.001125,0.000446,-0.000467,0.000121
643.5,0.00095,0.000227,0.000105,0.001707,0.003755,0.004907,0.00126,-0.000848,0.000327,0.001088,-0.000096,0.001187,0.00192,-0.000824,-0.000003
643,0.000347,0.000455,-0.001959,-0.00072,0.004273,0.005235,0.002428,-0.000085,-0.000427,-0.000523,0.00008,0.002104,0.000815,-0.00028,0.001435
642.5,-0.001142,0.00101,0.001362,-0.001588,0.002775,0.003056,-0.000618,-0.000483,-0.001007,-0.0012,-0.000937,0.000624,0.001227,-0.000911,0.000932
642,-0.000577,0.000904,-0.000466,-0.000849,0.002874,0.003795,0.000262,0.001109,0.001034,0.000607,-0.000728,0.001269,0.002176,0.000578,0.002
641.5,0.000337,-0.001545,-0.00063,-0.002349,0.001783,0.001393,-0.001729,0.000582,-0.000802,-0.00048,-0.001629,0.000428,-0.000138,0.000224,0.000593
641,0.001545,0.00268,0.00013,-0.001905,0.002188,0.002926,-0.001213,-0.000228,-0.000752,-0.002112,-0.000657,-0.001198,-0.000617,-0.000604,-0.000205
640.5,0.000864,0.000518,0.002027,0.00097,0.002418,0.001979,-0.001885,-0.001654,-0.000637,-0.001188,-0.001149,-0.00023,0.000782,-0.001038,-0.00088
640,0.001258,0.000248,0.000139,0.00002,0.002921,0.003785,-0.000049,-0.002245,-0.000131,0.000688,-0.000855,0.001281,0.000137,0.000218,0.000737
639.5,0.001122,0.000086,-0.000844,-0.003223,0.001407,0.005299,0.000486,-0.000899,-0.002323,-0.001869,-0.002646,0.0002,-0.002032,-0.000682,0.000566
639,0.000221,0.000931,0.001297,0.000792,0.004845,0.005659,0.000295,0.00123,-0.000589,-0.000241,-0.000166,0.000259,0.000359,-0.001011,-0.000011
638.5,0.000641,0.000882,-0.003873,0.001093,0.003666,0.004422,-0.001032,-0.0008,0.00032,0.000985,-0.000443,0.000124,-0.000161,0.000261,0.00225
638,-0.000229,-0.000102,0.00066,-0.002382,0.002678,0.002237,-0.000932,-0.000054,-0.000252,0.001249,0.000682,-0.000687,0.001179,0.000154,-0.000252
637.5,-0.001178,-0.001043,-0.003337,-0.000454,0.002874,0.006288,-0.000362,-0.000932,-0.001139,0.000972,0.000787,0.00038,-0.000359,-0.000578,-0.000683
637,-0.000938,-0.001355,-0.002059,-0.001398,0.002728,0.002966,0.001332,0.000464,0.000607,0.000272,-0.000531,0.000428,-0.00059,0.000477,0.002141
636.5,0.001658,0.000104,-0.000389,-0.00161,0.001897,0.004839,-0.000037,-0.001142,-0.000422,0.000294,0.000207,-0.00152,-0.001315,0.000043,0.001162
636,-0.001191,0.001753,-0.001153,0.000274,0.0026,0.003852,-0.000089,0.000335,-0.000065,-0.000159,-0.001578,0.00088,-0.000367,0.000266,-0.000545
635.5,0.000248,0.001759,-0.001127,-0.001543,0.003149,0.004882,0.000593,0.000355,0.000668,0.001231,-0.000545,0.000812,0.000093,0.001595,0.002741
635,0.000451,0.000251,0.000258,-0.001935,0.003083,0.002905,-0.001514,-0.001412,-0.000525,-0.000586,-0.000632,-0.000743,-0.001478,-0.00016,0.001562
634.5,-0.000393,-0.000419,0.000141,-0.001584,0.003038,0.003131,-0.000996,-0.000965,-0.001681,0.000429,-0.001076,0.000865,0.0015,-0.000047,0.000416
634,0.000315,-0.000185,0.000209,-0.000473,0.003207,0.003002,-0.002258,0.000303,0.001547,0.000062,0,0.001529,0.00071,0.000851,0.002227
633.5,0.000185,0.000591,-0.001469,-0.000177,0.001777,0.002224,-0.000124,-0.001504,-0.001076,-0.000593,-0.000832,0.000649,0.000461,-0.000105,0.001007
633,-0.001711,-0.000916,-0.000399,-0.002181,0.00164,0.003754,0.000322,0.001169,0.00202,-0.000314,-0.000399,-0.000687,-0.000353,-0.000381,0.000807
632.5,-0.000501,0.00024,0.000338,-0.000658,0.003089,0.002529,-0.000552,0.000687,0.000326,0.000322,-0.000779,-0.001273,0.000846,0.00017,0.002127
632,0.000556,-0.000821,0.000295,-0.002669,0.002081,0.003746,0.000138,-0.001134,0.000111,-0.000352,-0.001021,-0.000238,0.000169,-0.001251,-0.000996
631.5,0.001375,0.000729,-0.000383,-0.000387,0.003462,0.004946,0.000255,-0.000408,-0.002027,-0.000748,0.001073,0.000535,-0.000172,-0.001258,0.000427
631,0.00282,0.002851,-0.000778,-0.000141,0.002891,0.003181,0.000144,0.000228,-0.001643,0.000712,-0.000191,-0.000965,-0.000878,-0.000993,-0.000853
630.5,-0.00149,-0.000865,-0.000144,0.001284,0.004706,0.003124,-0.000673,0.000057,-0.000563,-0.00233,-0.001428,-0.000597,0.000413,-0.001271,-0.001236
630,0.001128,0.001306,-0.000884,-0.000923,0.002453,0.00421,0.000926,0.000075,0.00027,-0.000142,0.000027,-0.000342,0.000714,-0.000464,-0.000185
629.5,0.000619,0.001073,0.000227,-0.001636,0.002747,0.005301,0.002121,-0.001021,-0.003495,0.001485,0.000003,-0.00023,-0.000444,-0.000226,0.001882
629,0.000979,0.001109,0.000669,-0.000976,0.001553,0.005598,0.000605,0.000072,-0.000542,0.00197,0.002386,-0.001954,-0.001496,-0.000551,0.000995
628.5,0.000927,0.00068,0.000446,-0.001415,0.002765,0.005241,0.000608,-0.000973,0.000353,-0.001029,-0.000018,-0.001124,0.000066,-0.00092,0.000526
628,-0.000788,0,0.000319,0.000651,0.00325,0.003901,0.000424,-0.001304,-0.00083,-0.000593,-0.000628,-0.000268,-0.001087,-0.000502,-0.000106
627.5,0.001541,0.000475,0.000118,-0.000897,0.002806,0.005013,0.000314,0.001688,-0.001173,0.000169,-0.000243,0.001337,0.000001,-0.001033,0.001103
627,0.00211,0.001307,-0.000626,-0.000114,0.003333,0.003905,-0.000475,0.002254,-0.000297,0.001385,0.000819,-0.000995,-0.000482,-0.001034,0.000416
626.5,-0.001125,-0.00127,-0.001315,-0.001242,0.002982,0.004824,0.001006,-0.000786,-0.001552,0.00067,0.000584,0.000077,0.001418,0.000054,0.002256
626,0.000146,0.000973,0.000437,-0.001869,0.002123,0.004552,0.000781,0.000933,-0.000513,0.002087,0.001175,-0.000535,0.000384,-0.000757,0.000015
625.5,0.00009,-0.000306,-0.000339,-0.002246,0.002167,0.004198,-0.000067,0.000253,-0.00045,0.000041,-0.000391,0.000658,-0.000114,0.000142,0.000889
625,0.000093,-0.000403,-0.001199,0.000666,0.003063,0.003992,-0.000116,0.000002,0.000124,0.000282,0.000586,-0.000024,0.000516,-0.00069,0.001369
624.5,0.000448,-0.001192,-0.000563,0.00071,0.002952,0.003217,-0.001457,-0.000408,-0.001749,0.001408,0.000331,-0.002463,-0.001505,-0.001369,0.001257
624,0.0013,0.000841,0.000584,-0.00125,0.003213,0.005014,-0.001349,0.000987,0.000227,0.000571,-0.001264,0.001728,0.001185,-0.002505,-0.001794
623.5,0.000601,0.000061,-0.001389,-0.001338,0.002808,0.002785,0.000254,0.000283,-0.001347,0.00073,0.001645,0.000813,-0.000046,0.001178,0.002406
623,0.00021,-0.000088,-0.00037,0.00028,0.004041,0.002066,-0.000189,-0.001268,-0.001148,-0.000438,-0.001039,0.000678,-0.000036,0.00018,0.000721
622.5,0.000493,-0.000136,-0.001599,-0.000425,0.002022,0.004007,-0.00066,0.000978,-0.000396,0.000179,0.000275,0.000567,0.00157,-0.001142,-0.000116
622,0.000554,-0.00058,0.001171,-0.000395,0.002617,0.004138,0.000707,0.001284,-0.000888,0.000742,-0.000796,0.000911,0.000003,-0.002324,-0.00053
621.5,0.003597,0.001987,0.000157,-0.000423,0.005747,0.002023,-0.00256,-0.000809,0.000046,-0.00042,0.000563,0.000229,-0.001128,-0.000992,-0.001621
621,-0.000602,0.000275,-0.001018,-0.000417,0.003562,0.005556,-0.000597,-0.000135,0.000614,-0.000226,-0.000929,0.000501,-0.000098,-0.000489,0.00012
620.5,0.000853,-0.001095,-0.001764,-0.000757,0.003206,0.00161,-0.001822,0.000499,0.001663,0.001092,-0.000981,-0.001356,-0.000433,0,0.001166
620,0.000316,-0.000294,-0.000724,-0.001599,0.001458,0.00546,0.001748,0.000383,0.000611,0.000431,-0.000201,0.000881,0.000159,0.001054,0.002902
619.5,0.001247,0.0018,-0.000537,-0.001604,0.002312,0.002159,-0.002861,0.000278,-0.001507,-0.001669,-0.001642,-0.000859,0.000188,-0.000319,0.00138
619,0.000283,-0.000803,-0.00019,0.000528,0.003506,0.003438,-0.000381,0.000064,-0.000629,-0.000342,0.000622,0.000757,0.000939,-0.000754,0.000509
618.5,-0.00006,0.000244,0.00063,0.000928,0.004342,0.004053,0.000787,-0.000498,-0.001065,0.000205,0.000373,0.000421,0.000044,-0.001217,0.00035
618,0.001569,0.001437,-0.001038,-0.001473,0.002073,0.002657,-0.000815,-0.000814,-0.001579,0.000735,0.001506,0.000964,0.000149,-0.000596,0.000203
617.5,-0.000105,0.000351,0.000334,-0.00088,0.001327,0.003554,0.000684,-0.000998,-0.001668,-0.000905,-0.000041,0.000232,0.000909,0.000336,0.002388
617,0.000671,0.00059,-0.002098,-0.001574,0.002271,0.003231,-0.000791,-0.00087,-0.001779,0.000267,-0.000009,0.000927,0.000276,0.00104,0.001863
616.5,0.000235,0.000503,-0.000177,-0.002263,0.001458,0.004012,0.001197,-0.000115,-0.001348,-0.000369,-0.001149,-0.000308,-0.000312,-0.000353,0.001059
616,-0.000443,0.000434,-0.001437,-0.001387,0.002039,0.00485,0.000897,0.000125,-0.000841,-0.001425,-0.002057,-0.000123,0.000653,0.000049,0.000867
615.5,-0.001543,-0.001057,0.000509,-0.001287,0.001787,0.002743,-0.000452,-0.000885,-0.000593,-0.00095,-0.000527,-0.000392,0.001408,-0.001015,0.000283
615,-0.002701,-0.000583,-0.000813,-0.001186,0.002914,0.004349,-0.000826,0.000778,-0.000737,0.001115,-0.000331,-0.000538,-0.000671,-0.00101,0.00021
614.5,-0.000354,-0.000989,-0.0009,-0.000604,0.002597,0.003979,-0.000204,0.000934,-0.000949,0.000047,0.001424,0.000627,0.000086,-0.000482,0.001454
614,0.000618,0.001223,-0.002569,-0.000539,0.002929,0.003983,0.000964,-0.001214,-0.001516,0.000396,0.000019,0.000859,0.000688,-0.000555,0.000818
613.5,-0.000626,0.000806,-0.000923,-0.000828,0.002757,0.003881,0.000998,-0.000292,-0.000249,0.00046,-0.00033,0.000463,-0.000194,0.000364,0.001424
613,-0.000227,0.000833,-0.001483,-0.000713,0.003119,0.003035,-0.000947,-0.000603,-0.000177,0.001169,0.001851,0.000819,0.000089,-0.000659,-0.000571
612.5,0.000581,-0.000411,-0.00062,-0.000149,0.003157,0.002233,-0.00198,-0.000406,-0.000453,0.000016,-0.000749,0.000581,0.000279,-0.001342,0.001133
612,-0.001501,-0.000167,0.001584,-0.001788,0.001802,0.004349,-0.000801,0.000664,0.000104,0.000572,-0.000387,0.000302,0.001453,-0.000979,-0.000046
611.5,0.000932,0.000269,-0.001671,-0.000512,0.002101,0.003975,0.000576,0.000071,-0.000341,-0.000668,0.000218,0.000234,0.000602,-0.000709,0.000471
611,0.000478,0.001274,0.000382,-0.000124,0.002329,0.003341,-0.000039,-0.00151,-0.000616,-0.00092,-0.000809,0.000641,-0.000175,-0.000017,0.000033
610.5,0.000456,-0.000006,0.000367,-0.001202,0.001902,0.004259,0.001217,-0.000126,0.000191,-0.000176,-0.000229,0.000431,0.001517,0.000122,0.000966
610,0.00115,0.000603,-0.001388,-0.001195,0.002224,0.003716,0.00021,-0.000048,0.000038,0.000006,0.00053,0.000857,0.000365,-0.000306,0.001332
609.5,0.00018,0.000079,-0.000002,-0.001096,0.001532,0.004097,0.000783,-0.000866,-0.001911,0.001679,0.000786,0.00134,0.00032,0.000487,0.001125
609,0.000962,0.000131,-0.000032,-0.000329,0.00344,0.002804,-0.001509,0.000836,0.000587,0.000833,0.000171,0.00052,0.000235,-0.001299,0.000394
608.5,0.00016,0.000162,-0.000748,-0.00026,0.002768,0.003761,-0.000053,0.001258,0.000686,0.000632,-0.000384,0.000161,0.00156,-0.001007,0.001547
608,0.000722,0.001004,-0.000677,-0.001516,0.002675,0.003929,-0.000057,0.000222,-0.000524,0.000212,-0.000774,0.000347,-0.000734,0.000357,0.000059
607.5,-0.000415,-0.001032,-0.000307,-0.001304,0.001762,0.003427,0.001521,-0.00037,-0.000316,0.000098,-0.001496,0.001111,0.000704,-0.00002,0.001053
607,-0.000018,0.000229,0.000163,-0.002718,0.003102,0.004361,-0.000529,-0.000788,-0.000499,-0.000035,-0.000126,-0.000355,-0.000422,-0.000245,0.001414
606.5,-0.000301,0.000368,0.000404,-0.001847,0.002049,0.002531,-0.000078,0.000573,-0.000075,-0.000017,-0.000633,0.000583,-0.000045,0.00019,0.001085
606,0.000312,0.000723,-0.000608,-0.001085,0.002574,0.003936,-0.001252,0.001421,-0.000357,0.000621,0.000064,-0.000808,-0.000059,-0.000603,0.002039
605.5,0.000323,0.000659,-0.000677,-0.001292,0.002765,0.003811,-0.000516,0.001194,-0.000713,-0.000245,0.000168,0.000392,-0.000598,-0.00032,0.001035
605,-0.000596,-0.000225,-0.000228,-0.000504,0.003353,0.004027,-0.000055,-0.000185,-0.000984,0.001113,0.000419,0.000867,0.000052,-0.000691,0.000365
604.5,-0.000472,0.000011,0.00012,-0.001262,0.00236,0.003144,-0.000407,0.0006,-0.000555,-0.000465,-0.000578,0.000299,0.000492,0.00017,0.0011
604,-0.000086,0.000106,0.000453,-0.000611,0.002762,0.004451,0.000361,0.000078,-0.000398,0.000022,-0.000351,0.000098,-0.00018,0.000117,0.000961
603.5,-0.000148,0.000691,0.000146,-0.001081,0.002501,0.002882,-0.000275,-0.000016,-0.000567,0.000754,0.001036,-0.000089,0.000379,0.000345,0.001769
603,-0.000852,0.000068,0.000316,-0.000359,0.002454,0.003375,0.000082,0.00058,-0.000505,-0.000093,-0.00032,-0.000278,0.000095,-0.001085,0.001047
602.5,0.000532,0.000708,-0.000818,-0.001589,0.001582,0.003519,-0.000217,-0.000165,-0.000639,0.00001,-0.000092,0.000706,0.000081,0.000284,-0.000254
602,-0.000319,0.000754,-0.000473,-0.001553,0.002805,0.0041,0.000005,-0.00064,-0.001106,0.001293,0.000667,0.001833,0.001349,-0.00134,0.000911
601.5,0.000617,0.000575,-0.000768,-0.000806,0.001982,0.002817,-0.001317,-0.000657,-0.001268,-0.000131,-0.00007,0.001541,0.000316,-0.000579,-0.000569
601,0.000003,0.00069,-0.000904,-0.001046,0.002068,0.003998,0.00034,0.00037,-0.000908,0.000477,0.000631,-0.000196,-0.000641,-0.000414,0.001345
600.5,-0.001116,0.00002,-0.001332,-0.001834,0.001277,0.003326,0.000151,0.000299,-0.002194,0.000633,-0.000548,0.00053,0.00087,0.000897,0.002358
600,-0.00079,0.000475,-0.001243,-0.000966,0.002649,0.004638,0.001309,0.000488,-0.00031,-0.000321,-0.000248,-0.000017,-0.000344,0.000303,0.0003
599.5,0.000297,0.00099,-0.000393,-0.000907,0.003037,0.003169,-0.000601,0.000237,-0.001115,-0.000502,-0.001642,-0.000301,0.00001,-0.001352,0.00035
599,0.000399,0.001194,-0.001298,-0.000209,0.001891,0.003656,-0.000027,-0.000746,-0.00025,0.000414,-0.000422,0.000055,0.000394,0.000054,0.001727
598.5,-0.000365,-0.000035,-0.000778,-0.000451,0.002852,0.003649,-0.00063,-0.000573,0.000025,-0.000041,-0.000811,-0.000153,-0.000256,-0.000948,0.001064
598,0.000212,0.0003,-0.00031,-0.000481,0.003999,0.004763,0.000733,-0.000915,-0.001483,-0.000892,-0.001654,0.000231,0.00059,-0.000138,0.001167
597.5,0.000746,0.001336,0.000023,-0.001354,0.001843,0.003515,-0.000044,0.000115,-0.000374,0.000313,-0.000715,0.000382,-0.000369,0.000605,0.000885
597,0.000398,0.000434,0.000608,0.000083,0.002242,0.003606,0.000883,0.000611,-0.0008,0.000825,0.000696,0.001406,0.001559,-0.000229,0.001205
596.5,0.000022,0.000333,-0.001334,-0.000372,0.003889,0.003857,-0.000119,0.000443,-0.00041,0.000091,-0.000402,-0.000478,0.000355,0.000178,0.000799
596,-0.00016,0.000567,-0.001045,-0.001721,0.002068,0.003686,-0.00049,0.000398,0.000144,0.000688,0.000478,-0.000686,-0.000054,-0.000518,0.002015
595.5,0.001355,0.000866,-0.00034,-0.00087,0.003078,0.003355,-0.000134,-0.000066,-0.000816,0.000508,0.000731,0.000415,0.000681,-0.000521,0.000424
595,0.001069,0.001311,-0.000803,-0.001904,0.002468,0.004047,0.000566,-0.000451,-0.001647,0.00067,-0.000471,-0.000403,0.000267,0.000794,0.000822
594.5,-0.00071,-0.0012,-0.000945,-0.001069,0.003449,0.00436,0.00018,0.000186,-0.000327,0.001131,0.000554,-0.000025,-0.000412,-0.000657,0.000447
594,0.00071,0.000621,-0.00065,-0.001025,0.004142,0.005064,0.000165,-0.000653,-0.001105,0.001367,0.000324,-0.000238,-0.000812,-0.000167,0.001862
593.5,0.000201,0.000984,-0.001306,-0.001105,0.004025,0.002576,-0.001048,-0.000186,-0.001167,0.0008,-0.000553,0.000114,0.000383,-0.000152,0.001473
593,0.000569,0.00084,-0.000823,-0.001062,0.002821,0.004228,0.001127,-0.000275,-0.000224,-0.000492,-0.000146,-0.000244,-0.000325,-0.000774,0.000574
592.5,-0.00043,-0.000336,-0.001073,-0.001016,0.002942,0.004101,0.000159,0.000373,-0.001369,0.001865,-0.00013,0.000933,0.000723,-0.000131,0.000939
592,0.000519,0.001385,-0.000029,-0.000391,0.001774,0.004294,0.000201,-0.000366,-0.000652,-0.001077,0.00002,-0.000309,-0.000031,-0.000155,0.001151
591.5,-0.002042,-0.000684,-0.000106,-0.000572,0.002942,0.004289,-0.000008,-0.000556,-0.001416,-0.00034,-0.000088,-0.000402,-0.000273,-0.000488,0.000842
591,-0.001403,-0.00075,-0.00081,-0.001176,0.003173,0.004015,0.000686,0.000025,-0.000481,-0.000211,-0.000047,-0.000282,0.000172,-0.000699,0.001104
590.5,-0.000157,0.000328,-0.000904,0,0.004645,0.003662,0.000069,-0.000514,-0.000311,0.002088,0.001056,0.000865,-0.000289,0.000097,0.001091
590,0.000458,0.002014,-0.000394,-0.001222,0.002441,0.004323,0.000047,-0.000111,0.000273,-0.000814,-0.00068,-0.000297,-0.000341,0.000664,0.001802
589.5,-0.001242,0.000158,-0.001039,-0.002128,0.001797,0.004795,0.000615,0.001156,0.000232,0.000973,0.000567,0.001144,0.000751,0.000279,0.001602
589,0.000376,0.000775,-0.000589,-0.000938,0.003421,0.003225,-0.000408,-0.000604,-0.000157,-0.000904,-0.001571,-0.000204,0.0011,-0.001125,-0.000042
588.5,0.000867,0.000329,-0.000767,-0.000548,0.003045,0.003616,-0.000497,-0.000613,-0.001024,0.00057,-0.000585,0.000361,0.000754,0.000101,0.001687
588,-0.000039,0.000339,-0.000183,0.000257,0.003679,0.002054,-0.001102,0.000246,-0.000258,-0.001264,-0.001168,0.000287,-0.000259,-0.000059,0.001534
587.5,0.00067,0.000732,-0.00104,-0.001423,0.002986,0.004252,0.000437,0.000173,0.000146,-0.000181,-0.001057,0.000285,0.00092,-0.000442,0.001507
587,-0.000902,-0.000605,-0.001035,-0.000439,0.00326,0.003489,-0.000103,-0.000559,-0.000524,0.001127,-0.000476,0.001282,0.000624,0.000262,0.001191
586.5,-0.00083,-0.00115,-0.000247,-0.000264,0.003536,0.002701,-0.0016,-0.001501,-0.001137,-0.000512,-0.000976,-0.000379,0.000918,-0.000536,-0.000126
586,0.000707,0.000993,-0.001247,0.000635,0.002584,0.003622,-0.000637,-0.000101,-0.000782,-0.001233,-0.001678,-0.000063,0.000159,-0.001076,0.001094
585.5,0,-0.001421,-0.00063,-0.000191,0.001923,0.004243,0.000725,0.000174,-0.000601,-0.000696,-0.000487,0.000482,0.00098,-0.000144,0.001264
585,-0.000108,-0.000058,-0.001097,-0.001044,0.002848,0.005249,0.000541,0.000397,-0.00204,0.000187,0.000139,0.000579,-0.000412,-0.000554,0.000317
584.5,-0.000521,-0.000146,0.001197,-0.000834,0.004102,0.00324,-0.000134,0.000269,-0.00085,0.000499,0.000203,0.000753,-0.000683,-0.000855,0.000519
584,0.000589,-0.000497,0.001161,-0.000528,0.00346,0.001955,-0.000482,-0.000428,-0.000618,0.000133,0.000114,0.002141,0.000586,-0.000796,0.000437
583.5,0.00084,-0.000928,0.000455,-0.00004,0.002389,0.003822,0.001065,-0.000194,-0.000769,0.000418,-0.000843,0.000961,0.001202,0.000072,0.000843
583,-0.000532,-0.000257,0.000197,-0.001463,0.002015,0.002095,0.000151,-0.000231,-0.001165,-0.00045,-0.001624,0.000322,0.000595,-0.001675,0.000889
582.5,0.000033,0.001702,0.000574,-0.001034,0.002795,0.004956,0.000298,-0.000725,-0.000962,0.001245,0.000366,-0.000521,0.000162,-0.000022,0.000865
582,0.000795,0.000338,0.000113,-0.001165,0.002794,0.003973,-0.000298,-0.002263,-0.002149,-0.000801,0.000524,-0.000986,0.000399,-0.000562,0.00098
581.5,-0.000645,-0.00015,-0.001345,-0.000806,0.002446,0.005536,0.000219,-0.000769,-0.000065,0.000623,-0.001379,-0.000225,0.000272,-0.000777,0.001268
581,0.000606,0.001362,-0.000714,0.00023,0.003069,0.004099,0.000503,0.000142,-0.000481,0.001271,0.000606,0.000541,-0.000673,0.00015,0.000512
580.5,0.000008,-0.001092,-0.000011,-0.000095,0.001813,0.004733,-0.000517,0.000426,0.000052,-0.000252,-0.001605,-0.000439,0.000476,0.000003,0.001343
580,0.000458,-0.000385,-0.000201,-0.00107,0.00175,0.003065,-0.000398,0.000989,-0.000391,0.001425,0.000081,0.002144,0.001048,-0.000698,0.00052
579.5,-0.000679,0.000522,-0.000139,-0.002025,0.002296,0.002669,-0.001488,-0.000217,-0.001252,-0.000177,-0.001366,-0.000685,0.000509,0.000512,0.000334
579,0.000059,0.000303,-0.001103,-0.001134,0.002407,0.003998,0.000089,0.000377,-0.000203,-0.001091,0.000357,-0.00028,0.00055,-0.001022,0.001154
578.5,0.00078,0.001164,0.000578,-0.000813,0.002757,0.004644,0.001223,0.000786,-0.000101,0.000092,-0.000685,0.000862,0.000166,-0.001492,0.000874
578,0.000753,0.000984,-0.00119,-0.001222,0.001886,0.004318,0.000195,0.00006,-0.000136,0.000404,0.000714,0.000286,-0.000007,0.001148,0.001849
577.5,-0.0014,-0.000841,-0.000032,-0.001084,0.00198,0.003651,0.000468,0.000043,-0.000676,0.000733,-0.00132,-0.000332,-0.000693,-0.000358,0.001927
577,0.001151,0.000763,-0.000609,-0.000264,0.002496,0.003622,-0.000744,-0.001113,-0.000816,-0.000389,-0.000296,-0.00018,-0.000153,-0.00096,0.000386
576.5,0.000075,-0.000004,-0.000199,-0.001976,0.002181,0.004008,0.000685,0.000176,0.000214,0.000567,-0.000075,0.000595,0.000264,0.000465,0.000915
576,0.000453,0.001432,-0.001329,0.000407,0.003304,0.003473,0.000042,-0.000694,-0.000778,-0.0005,-0.000746,-0.000917,-0.000698,0.000157,0.001825
575.5,-0.00019,-0.000339,-0.00119,-0.001704,0.002048,0.00364,0.000119,0.000491,-0.001332,0.000232,-0.000148,0.0005,0.000482,0.000171,0.000835
575,-0.000119,0.001395,-0.001038,-0.000424,0.002633,0.004428,0.000964,0.000348,-0.000593,0.00138,0.00036,-0.000666,-0.000352,-0.001125,0.000394
574.5,0.000132,0.000497,-0.000568,-0.000379,0.002319,0.004891,0.0004,-0.000123,-0.000926,0.00018,0.000136,0.000288,-0.000774,0.000663,0.001514
574,-0.000328,-0.000759,-0.001327,-0.002017,0.002831,0.004706,-0.000113,0.000289,-0.001417,0.000132,-0.000379,0.000549,0.000061,-0.001102,0.000181
573.5,0.000096,0.001095,-0.001265,-0.001528,0.003046,0.003364,-0.000347,-0.000233,-0.00111,-0.000249,0.000313,0.00005,0.000586,-0.001565,0.001707
573,0.00056,0.000706,-0.0005,-0.00031,0.002614,0.004168,-0.000351,0.000174,-0.000909,-0.000085,-0.000004,0.000609,-0.000321,0.000181,0.001976
572.5,-0.000272,-0.000544,-0.001124,0.000377,0.002986,0.005515,-0.000047,-0.000257,0.000061,0.000102,-0.000408,-0.000288,-0.000376,-0.000315,0.000781
572,-0.000878,-0.000033,-0.000338,-0.001939,0.001804,0.003307,-0.000357,0.000413,0.000289,0.000353,-0.000173,0.000113,0.000125,0.000046,0.000767
571.5,-0.000014,0.000784,0.000066,-0.001406,0.002665,0.004144,-0.000016,0.000287,-0.001442,-0.000299,-0.000896,-0.000006,0.000284,0.000612,0.001497
571,-0.000198,0.001459,-0.000763,-0.001053,0.002907,0.004177,-0.000033,-0.000823,-0.001775,0.000885,0.000289,-0.000797,0.000031,0.0003,0.001188
570.5,-0.000651,0.001315,-0.00047,-0.001559,0.003151,0.004231,-0.000063,-0.000478,-0.001076,-0.00035,-0.000358,-0.000536,-0.000224,-0.00092,0.000596
570,-0.000743,-0.000331,-0.000494,-0.00106,0.003374,0.004584,0.000622,0.000087,-0.001509,-0.000173,-0.00158,0.000638,0.001652,-0.000259,0.001127
569.5,0.000973,0.00067,0.000257,-0.000408,0.002973,0.003603,-0.000806,-0.000796,-0.000957,-0.000233,-0.00074,0.000628,0.0004,0.000263,0.001717
569,-0.000394,-0.000446,0.000263,-0.000656,0.004002,0.003942,-0.000238,-0.000872,-0.001237,-0.00114,0.000024,0.00034,0.000653,-0.000919,0.001168
568.5,0.000348,-0.000044,0.001111,-0.001388,0.002853,0.004328,0.000578,0.000109,-0.000956,0.00082,-0.000126,-0.000918,-0.000361,0.000183,0.000421
568,0.001184,0.000317,0.000036,-0.00038,0.003216,0.003348,-0.001629,0.000576,-0.001718,0.000174,-0.000318,0.000279,-0.000874,-0.000318,0.001144
567.5,0.000009,-0.000749,-0.000581,-0.000391,0.003065,0.004521,0.000152,-0.000197,-0.001392,0.000391,-0.000554,0.001001,0.00136,-0.000451,-0.000248
567,-0.000259,-0.000102,-0.001596,-0.000459,0.003299,0.00403,0.000124,-0.000487,-0.001493,-0.000506,-0.001545,0.000763,0.000381,-0.001014,0.000854
566.5,0.000217,0.000019,-0.000536,-0.000885,0.002797,0.004804,-0.000074,0.000487,-0.001313,-0.00056,-0.000101,0.001196,0.000554,-0.000726,0.00051
566,-0.000229,0.000052,-0.000417,-0.000513,0.003408,0.00484,0.000454,0.000635,-0.000223,0.000584,0.000354,-0.000467,-0.000005,0.000052,0.000727
565.5,-0.000478,0.000883,-0.000088,-0.000297,0.004059,0.003361,0.000318,-0.001076,-0.000417,-0.000399,-0.000398,-0.000164,0.000642,0.00076,0.000493
565,0.000456,0.000856,-0.00143,0.000339,0.002881,0.003853,-0.000448,0.000422,-0.000794,-0.000206,-0.000428,-0.000263,0.000385,-0.000239,0.00064
564.5,-0.000702,0.001041,-0.001965,-0.001536,0.002612,0.003223,-0.00078,0.00087,-0.000845,-0.000273,-0.001079,-0.00015,-0.000246,-0.000733,0.000054
564,0.000805,0.000537,0.000233,-0.000879,0.003298,0.003961,-0.000307,-0.000173,-0.000812,0.000594,-0.000753,0.000241,0.001077,0.000067,0.000326
563.5,0.000895,0.000753,-0.000406,-0.00078,0.001945,0.003074,-0.000961,0.000446,0.000697,-0.000691,-0.000802,0.000628,0.000503,-0.00094,-0.000309
563,-0.000673,0.000582,-0.001005,-0.000295,0.00322,0.004237,-0.00011,-0.001986,-0.001753,-0.000032,-0.00035,0.001151,0.000335,-0.000378,0.002251
562.5,-0.000051,0.000343,-0.00062,-0.000616,0.00236,0.00342,-0.000699,0.000041,-0.000325,0.000438,-0.000751,0.000259,0.000147,0.000013,0.001439
562,-0.000723,-0.000364,-0.001755,-0.001366,0.00292,0.002702,-0.00005,0.000272,-0.000117,0.001257,0.000567,0.000902,0.000443,-0.001576,-0.000892
561.5,0.000545,0.000178,-0.000575,-0.000039,0.002894,0.004372,0.000502,0.000608,-0.000721,0.000389,-0.000776,0.001253,0.000624,0.000312,0.001915
561,0.001094,0.001527,0.000082,-0.001225,0.003366,0.00399,-0.000294,0.001603,0.000377,-0.001163,-0.000354,0.001111,0.000442,0.000206,0.000532
560.5,-0.000334,0.000969,-0.001086,-0.000278,0.002582,0.003447,-0.000765,-0.000391,-0.001063,-0.00071,-0.000396,-0.000196,0.001139,-0.000219,0.001292
560,0.001074,0.001028,-0.000573,-0.00076,0.0021,0.00428,0.000453,-0.000052,-0.000775,0.000723,0.001026,0.000634,0.000492,-0.002385,-0.000858
559.5,0.000686,0.000262,-0.000296,-0.000883,0.002254,0.004745,0.000746,0.00052,-0.001085,0.000677,-0.000007,0.001257,-0.0005,0.001314,0.00163
559,0.000116,-0.000193,0.000158,-0.000409,0.002534,0.004188,0.000376,0.000069,-0.000357,0.000397,-0.000646,0.000034,0.001155,-0.000506,0.000282
558.5,0.000859,0.000672,-0.000575,-0.000968,0.002576,0.004301,0.00115,-0.000809,-0.001501,0.001863,0.000816,0.000614,0.000115,0.000341,0.000662
558,0.000828,0.001146,-0.000029,0.000708,0.00397,0.003937,-0.000081,-0.000882,0.000776,0.00037,0.000537,-0.000975,-0.00066,0.000236,0.001892
557.5,-0.000747,0.000007,-0.00143,-0.000696,0.00274,0.004174,-0.00036,-0.000631,-0.001396,0.000041,-0.000927,0.001541,0.000833,-0.000996,-0.000109
557,-0.000894,-0.000705,-0.000397,-0.000766,0.002688,0.003858,-0.00106,-0.000418,-0.000234,-0.000184,-0.000967,0.001248,0.000435,-0.000761,0.001665
556.5,-0.000324,0.000104,-0.001226,-0.00077,0.002804,0.002903,-0.000932,0.000083,-0.000242,0.000602,-0.000775,0.001419,0.001195,0.000106,0.000981
556,-0.000021,0.000591,0.000491,-0.001815,0.002085,0.004509,0.000658,-0.001009,-0.001692,0.00046,-0.000906,0.000479,0.000771,0.000859,0.001862
555.5,-0.000037,0.001743,-0.000903,0.000064,0.003177,0.003455,-0.000533,0.00006,-0.000317,0.000326,-0.000005,0.000672,0.000179,-0.000731,0.00092
555,0.000239,0.000492,-0.000778,-0.000533,0.004053,0.00371,-0.000161,-0.00042,-0.001313,0.00027,0.000326,0.000244,-0.000722,0.000561,0.000648
554.5,-0.000324,0.000728,-0.000985,-0.000369,0.00194,0.00384,-0.00018,0.000025,-0.000704,0.000003,-0.000033,-0.000338,0.000135,-0.000125,0.000128
554,0.000528,0.00108,-0.001126,-0.001197,0.002322,0.003323,-0.000599,0.000031,-0.001134,0.00037,0.000663,0.001478,0.001525,0.001276,0.001762
553.5,0.000419,0.000741,-0.000803,-0.001214,0.003251,0.005055,-0.000094,0.000261,-0.00049,0.001057,-0.00027,-0.000687,-0.000282,-0.000749,0.000764
553,0.000494,0.000789,-0.000887,-0.001038,0.002559,0.004432,-0.000575,0.000174,-0.000259,-0.000639,-0.000572,0.000777,0.000844,0.000248,0.000778
552.5,0.000168,0.000433,-0.000829,-0.001742,0.002051,0.003889,0.000187,-0.000674,-0.001151,0.000209,0.000464,-0.00036,-0.000278,0.000745,0.002128
552,-0.000208,-0.000175,-0.000138,-0.001201,0.002416,0.00426,0.000289,0.000033,-0.000525,0.000918,0.000523,0.001402,0.001379,-0.001831,0.000092
551.5,-0.000221,-0.000033,-0.000062,-0.002111,0.002311,0.003688,-0.000225,-0.000647,0.000045,0.000063,0.000659,0.000654,0.000752,-0.000332,0.000552
551,-0.000822,-0.000203,-0.000425,-0.001278,0.003123,0.004574,0.000067,0.000671,-0.000553,-0.000617,-0.000831,0.000861,0.000673,-0.000586,0.000852
550.5,0.001101,0.001268,0.000031,-0.000465,0.003389,0.00316,-0.001145,0.000392,-0.000256,0.001184,-0.000405,0.000055,0.000793,-0.000718,0.000423
550,0.000791,0.001054,-0.000618,-0.000677,0.003011,0.004673,0.000573,-0.000908,-0.001641,-0.000265,-0.000542,-0.000141,0.000516,0.001568,0.001793
549.5,-0.000231,0.000603,-0.000431,-0.000916,0.002604,0.00387,-0.000865,0.000066,-0.000193,-0.000116,-0.000804,0.00124,0.000629,0.000156,0.000885
549,-0.000634,0.000168,-0.000099,-0.001189,0.00239,0.00404,-0.000161,0.000246,-0.000319,0.001209,0.000272,0.000324,0.000404,0.00024,0.000068
548.5,-0.000483,0.000367,0.000117,-0.000511,0.004316,0.00435,-0.000223,0.000891,-0.00069,-0.001231,-0.001425,0.000614,0.000883,-0.00082,0.000749
548,-0.000889,0.000213,-0.001285,-0.000288,0.002652,0.002922,-0.000574,0.000219,-0.000641,0.000266,-0.000386,0.000298,-0.000015,0.000162,0.000905
547.5,0.000172,0.000214,-0.000304,-0.001079,0.002618,0.003911,0.000096,0.000429,-0.001181,0.000569,0.000095,0.001406,0.001262,0.000036,0.00126
547,0.000447,-0.000251,-0.000012,-0.00072,0.003079,0.004158,-0.000145,-0.000023,-0.001432,-0.001579,-0.001437,0.000026,-0.000199,-0.000934,0.000513
546.5,-0.000117,-0.000193,-0.00141,-0.000687,0.002823,0.003898,-0.000661,0.000872,-0.000119,0.000311,-0.000666,0.000229,0.000182,0.000165,0.001357
546,-0.0005,0.000603,0.000147,-0.00032,0.00325,0.003639,0.000005,0.000685,-0.000215,0.00095,0.000687,0.000753,0.001326,0.000145,0.000644
545.5,0.000081,0.000184,-0.000088,-0.000795,0.002777,0.003958,0.000007,-0.000104,-0.000964,-0.000034,-0.000374,-0.00025,-0.000258,-0.000305,0.001055
545,0.000209,0.000458,0.000157,-0.001627,0.002599,0.003921,-0.000184,0.000154,-0.000081,0.000094,-0.000161,0.000717,-0.000196,-0.00122,0.000298
544.5,0.000601,0.000252,-0.001224,-0.000894,0.003454,0.005071,0.001135,-0.00054,-0.001265,-0.000677,-0.000655,0.000278,0.00054,-0.000297,0.000306
544,-0.000243,-0.000098,-0.000872,-0.000691,0.00284,0.004148,0.0004,-0.001166,-0.001118,-0.000219,-0.000215,-0.00019,0.000619,-0.000002,0.001372
543.5,-0.000452,0.000145,-0.000713,-0.000805,0.002588,0.004497,0.000251,0.00038,-0.000339,0.000264,0.000012,0.000433,-0.000044,-0.0001,0.001555
543,-0.000039,0.000285,-0.000609,-0.00153,0.002664,0.003694,-0.000441,0.000242,-0.000866,0.000808,0.000093,0.000345,0.000333,0.000256,0.001445
542.5,0.0001,0.000394,-0.000395,-0.001206,0.002898,0.003912,-0.000591,-0.000715,-0.000472,-0.000375,-0.000171,0.000375,0.000375,-0.000676,0.001171
542,0.000305,0.001076,-0.000798,-0.001047,0.003065,0.004193,-0.000533,0.000565,-0.000122,0.000364,-0.000154,0.000016,0.000235,-0.000783,0.001255
541.5,-0.000242,0.000461,-0.000123,-0.000905,0.002607,0.004072,-0.000213,-0.000421,-0.0011,0.000048,0,0.000176,0.000071,-0.000338,0.000687
541,-0.000397,0.000321,-0.001052,-0.001088,0.002638,0.004388,0.000095,0.000123,-0.000479,0.000108,0.000009,0.000537,0.000257,-0.000685,0.000932
540.5,0.000397,0.000671,-0.000285,-0.000776,0.003469,0.003835,-0.00071,-0.000572,-0.001065,0.000091,0.000005,-0.000037,0.000071,0.00027,0.00112
540,0.000106,0.000754,-0.000699,-0.000578,0.003702,0.004196,-0.000007,-0.000422,-0.001267,0.000295,-0.000186,0.000377,0.00009,0.00001,0.002033
539.5,-0.000258,-0.000605,-0.000426,-0.001317,0.00279,0.004367,0.000314,-0.000201,-0.000734,-0.000197,-0.000414,0.000016,0.00046,0.000166,0.001987
539,-0.000435,0.000107,-0.000208,-0.000162,0.002738,0.004927,0.000565,-0.000486,-0.000841,-0.00058,0.000227,0.000837,0.000484,-0.000566,0.000429
538.5,0.000936,0.000739,-0.000029,-0.001469,0.002499,0.003812,-0.000184,-0.000351,-0.001077,-0.000368,0.000159,0.000813,0.001197,-0.000767,0.000099
538,-0.000183,0.000248,-0.00115,-0.000978,0.002852,0.004292,0.000549,-0.000102,-0.001486,0.000591,0.000098,0.000981,0.000709,-0.000134,0.001374
537.5,0.000894,0.000068,-0.00054,-0.000649,0.003265,0.00446,-0.00022,-0.000145,-0.000346,0.000952,-0.000047,0.000646,0.000402,-0.000672,0.001219
537,-0.000065,0.000451,-0.00055,-0.000878,0.003102,0.004641,0.000053,-0.00032,-0.000569,0.000138,0.00022,0.000351,0.000298,0.000196,0.001245
536.5,0.000068,0.000112,-0.00045,-0.000479,0.00254,0.004797,-0.000196,0.000473,-0.000522,0.000331,0.00004,0.000373,0.000233,-0.000045,0.000675
536,-0.000335,0.000707,-0.000577,-0.000937,0.003007,0.004522,0.000205,-0.00016,-0.000487,0.000559,0.000234,-0.000085,0.000127,-0.000211,0.000686
535.5,-0.000416,0.000469,-0.000014,-0.001988,0.002867,0.004789,0.000517,0.000198,-0.000206,0.000553,-0.000435,0.000552,0.000728,-0.000111,0.001291
535,0.000924,0.001102,-0.000992,-0.000114,0.003397,0.00387,-0.0007,0.000421,-0.00065,0.000228,-0.00047,0.000436,0.000354,-0.000055,0.001044
534.5,0.000103,0.000761,-0.001141,0.000057,0.004011,0.004298,-0.000476,-0.000187,-0.000999,0.000194,-0.000354,-0.000233,0.000005,-0.00068,0.000613
534,-0.000188,0.00037,-0.00074,-0.001169,0.0031,0.004052,-0.000294,-0.000197,-0.000925,-0.000161,-0.000272,0.000353,0.000746,-0.000308,0.00133
533.5,-0.000045,0.000115,-0.00053,-0.000624,0.003059,0.004137,-0.000191,0.000083,-0.000292,0.000052,-0.000081,0.000246,0.000586,-0.000163,0.001158
533,-0.000678,0.000241,0.000517,-0.000889,0.003026,0.00461,-0.000139,0.000129,-0.000638,0.000104,-0.000183,-0.000312,0.000467,-0.000675,0.00062
532.5,0.000451,0.000998,-0.000345,-0.0006,0.002828,0.004285,-0.0004,0.000239,-0.000526,0.000462,-0.000168,0.00116,0.000859,0.000008,0.001387
532,-0.000158,0.000286,-0.000776,-0.000273,0.003105,0.004493,-0.00036,-0.000232,-0.001137,-0.00042,-0.000549,-0.000076,0.000185,0.000273,0.001692
531.5,0.000546,0.001185,-0.000156,-0.001639,0.002621,0.004236,-0.000067,-0.000465,-0.000725,0.000444,0.000123,-0.000383,0.000133,0.000212,0.001576
531,0.000197,0.000252,-0.000362,-0.00122,0.002844,0.004119,-0.000156,-0.000171,-0.000576,0.000487,-0.000211,0.000572,0.000549,-0.00045,0.001385
530.5,-0.000773,0.000177,-0.000554,-0.000968,0.002667,0.004658,-0.000073,-0.000373,-0.000974,0.00045,0.000051,0.000552,0.000061,-0.000032,0.001475
530,0.000008,0.000634,-0.000342,-0.001064,0.002702,0.00428,-0.000109,-0.000352,-0.000458,0.000213,-0.000214,0.000584,0.000452,-0.000232,0.001086
529.5,-0.000321,0.000654,-0.000729,-0.001227,0.002538,0.004177,-0.000511,-0.000333,-0.001115,-0.00005,-0.000092,0.00024,0.000285,-0.000396,0.001517
529,-0.000312,-0.000042,-0.000401,-0.000847,0.002966,0.004433,0.000168,-0.000213,-0.000641,0.000158,-0.000185,0.000348,0.000734,0.000018,0.001033
528.5,0.000042,0.00033,-0.000903,-0.000602,0.002943,0.004035,-0.000056,0.00023,-0.000288,0.000643,0.000277,0.000673,0.000399,-0.0005,0.000892
528,-0.000386,0.000297,-0.00048,-0.000982,0.002614,0.004412,-0.000299,-0.00008,-0.000622,-0.000051,-0.000539,0.000233,0.000553,-0.000361,0.000843
527.5,-0.000402,-0.000099,0.00005,-0.000669,0.003153,0.004235,-0.000396,-0.000108,-0.000723,0.000367,0.000023,0.00003,0.000441,0.000149,0.000869
527,-0.000184,0.000077,-0.000221,-0.000647,0.002488,0.004045,-0.000278,-0.000026,-0.00036,-0.000354,0.000067,0.000662,0.000219,-0.000148,0.000827
526.5,-0.000268,-0.000394,-0.000737,-0.000746,0.002927,0.00425,-0.000305,0.000302,-0.00047,0.000061,-0.000214,0.000174,-0.00017,-0.000169,0.001065
526,0.000406,0.000714,-0.000043,-0.000886,0.002982,0.004583,0.00069,-0.000502,-0.00073,0.000056,-0.000263,0.000348,0.000296,0.000157,0.001133
525.5,0.000323,0.000325,-0.000094,-0.001085,0.002936,0.004487,-0.000379,0.000482,-0.000415,0.000098,-0.00066,-0.000572,-0.00007,-0.000135,0.00138
525,-0.000356,0.000619,-0.0002,-0.001087,0.002874,0.004494,-0.000031,0.000245,0.000134,0.000237,-0.000303,0.000541,0.00029,-0.000677,0.00071
524.5,0.00008,0.00104,-0.000367,-0.000865,0.002878,0.004326,-0.000543,-0.00068,-0.000554,0.000256,0.000067,0.000756,0.000539,-0.000825,0.000831
524,0.000066,0.000658,-0.000679,-0.001217,0.003177,0.003699,-0.001569,-0.000755,-0.000499,-0.000438,-0.000843,-0.000045,0.000047,0.000076,0.00152
523.5,-0.000141,-0.000435,0.000037,-0.000263,0.002903,0.003923,-0.00072,-0.000724,-0.000415,-0.000213,-0.000327,0.000142,0.000637,-0.000083,0.001832
523,0.000381,0.00075,-0.000286,-0.001735,0.002419,0.003555,-0.000024,-0.001071,-0.001651,-0.00012,0.000024,0.000099,-0.00074,-0.000283,0.000573
522.5,0.000457,0.000238,-0.000148,-0.001194,0.002553,0.003909,-0.000329,0.000403,-0.00006,0.000361,0.000518,0.001044,-0.000207,-0.000041,0.000999
522,0.000172,0.000217,0.00042,-0.002084,0.002537,0.003491,-0.001459,0.000037,-0.000423,0.000025,-0.000171,0.001005,0.001014,-0.000011,0.001582
521.5,0.000917,0.001161,-0.000708,-0.001189,0.002169,0.004557,-0.000436,0.00018,-0.000415,-0.001041,-0.001213,0.000407,0.000019,-0.00075,0.000998
521,-0.00074,-0.000333,0.000108,-0.001207,0.002873,0.004325,-0.000243,-0.000096,-0.000588,0.000767,0.000344,-0.000149,-0.000672,-0.000994,0.001173
520.5,0.000612,0.000861,-0.000373,-0.001184,0.002871,0.004359,-0.00019,-0.000241,-0.000096,0.000733,-0.000452,0.000089,0.000298,-0.000625,0.000142
520,-0.000153,0.000798,-0.001001,-0.001195,0.002992,0.004437,0.000285,0.000029,-0.000964,0.000121,-0.000437,0.000213,-0.000051,-0.000086,0.00109
519.5,0.000174,0.000841,-0.000793,-0.001017,0.002612,0.004135,0.00002,-0.000587,-0.000348,-0.000259,-0.000506,0.000348,0.000645,-0.000562,0.001085
519,0.000252,0.000281,-0.001231,-0.000715,0.003175,0.005347,0.000348,-0.00032,-0.000863,0.000168,-0.000438,0.000668,0.000555,-0.000331,0.000909
518.5,-0.000429,0.000236,-0.000688,-0.000571,0.002951,0.004671,0.000502,-0.000206,-0.000329,0.000222,-0.000401,0.000834,0.000616,-0.000854,0.000582
518,-0.000141,-0.000099,-0.000453,-0.000668,0.00272,0.00448,-0.000209,0.000027,-0.000788,-0.000008,-0.000268,0.000532,0.00052,0.0003,0.001682
517.5,-0.000672,-0.000087,-0.001409,-0.000817,0.002697,0.004437,-0.000539,0.000079,0.000066,-0.000168,-0.00052,0.000727,0.000892,-0.000125,0.001307
517,0.00017,0.000555,-0.000558,-0.001086,0.002067,0.005346,0.000202,-0.000296,-0.000566,-0.000086,-0.000486,0.00045,0.000728,-0.000565,0.00117
516.5,0.000036,-0.000015,-0.000552,-0.000594,0.002908,0.003534,-0.000728,-0.000427,-0.000518,0.000316,-0.000406,0.000076,-0.000086,0.000209,0.001636
516,-0.000036,0.001096,-0.000467,-0.00066,0.002876,0.004644,0.000659,-0.000417,-0.000661,-0.000236,-0.000404,0.000437,-0.000589,0.000356,0.000579
515.5,0.000033,0.001066,-0.000601,-0.000855,0.003421,0.004416,-0.000207,0.000359,-0.000312,0.000081,-0.000354,0.000345,0.000554,0.000571,0.001126
515,0.000283,0.000354,-0.000419,-0.002061,0.002528,0.004994,0.001128,-0.000583,-0.000949,-0.000278,-0.000096,0.000342,0.000737,-0.000076,0.001509
514.5,-0.000062,0.000324,-0.000745,-0.000856,0.003436,0.004051,-0.000124,0.000069,-0.000821,-0.000021,-0.000226,0.000423,0.000211,-0.000225,0.001222
514,-0.000593,0.000296,-0.001301,-0.000954,0.003534,0.003979,-0.000952,-0.000033,-0.000919,0.001266,0.000059,0.000617,0.000023,-0.001179,0.000532
513.5,-0.000117,0.000744,-0.000881,-0.001061,0.003606,0.00376,-0.000559,0.00075,-0.000179,-0.000971,-0.000942,0.000599,-0.000428,0.000688,0.002421
513,0.000589,0.000763,-0.000937,-0.002276,0.002104,0.004395,0.000331,0.000007,-0.000444,0.000196,0.000333,0.000305,0.000493,0.000087,0.00107
512.5,-0.000533,-0.000352,0.00019,-0.000739,0.003049,0.004708,0.000284,0.000253,-0.000735,0.00015,0.000545,0.001025,0.000204,-0.000463,0.000801
512,0.000871,0.000421,-0.000014,-0.001585,0.002582,0.004515,0.000911,0.000269,-0.000994,0.000883,-0.000329,-0.000009,-0.000518,0.000788,0.001974
511.5,-0.000422,0.000399,-0.001118,-0.000242,0.002981,0.003785,-0.000975,0.000336,-0.000966,-0.000376,-0.000421,0.000236,-0.000354,-0.000804,0.000658
511,-0.000618,0.000773,-0.000164,-0.00124,0.002504,0.005009,0.000517,-0.000162,-0.000616,0.000364,-0.00056,0.000532,0.001143,-0.000838,-0.000106
510.5,-0.000099,0.001146,-0.001227,-0.001267,0.003308,0.004941,-0.000124,-0.000466,-0.001009,0.000492,-0.000378,0.000119,0.000112,-0.000152,0.001468
510,-0.000288,0.000247,0.000151,-0.000775,0.002623,0.004624,-0.000489,0.000519,-0.000777,0.000516,0.000779,0.000163,-0.00005,-0.000708,0.000484
509.5,-0.000265,0.000323,-0.000715,-0.000935,0.002857,0.003448,-0.000831,-0.000271,0.000022,0.001038,0.000211,0.001233,0.000492,-0.000787,-0.000267
509,-0.000151,0.001086,-0.000645,-0.000417,0.003337,0.004163,-0.000357,-0.000338,-0.000631,0.000052,-0.000519,0.000358,-0.000079,-0.00023,0.001022
508.5,0.001301,0.000869,-0.001177,-0.00032,0.003432,0.003773,0.000143,-0.000629,-0.000895,0.000484,-0.000244,0.000756,0.000847,-0.000179,0.001234
508,-0.000155,0.000491,-0.00081,-0.000156,0.003095,0.004447,0.000688,0.000219,-0.000392,0.000364,0.000511,0.000455,0.00066,0.000549,0.001626
507.5,-0.000732,-0.000046,-0.000149,-0.001575,0.003843,0.005137,0.000322,0.000186,-0.000506,0.000593,-0.000206,0.000469,0.00131,0.00032,0.001862
507,0.000136,0.000674,-0.000186,-0.000936,0.002851,0.005201,0.000278,-0.00174,-0.000952,0.00001,-0.000292,0.000554,0.000899,0.00011,0.00165
506.5,0.0007,0.000181,0.000557,-0.000765,0.003309,0.00418,0.000304,0.000283,-0.000901,-0.000001,0.000111,0.000879,0.001276,0.000455,0.001885
506,-0.000429,0.000847,-0.00055,-0.001183,0.00271,0.003718,-0.000949,-0.000328,-0.0001,0.000618,-0.000156,-0.000752,0.000163,-0.000108,0.000697
505.5,-0.000995,0.000663,-0.000629,-0.000304,0.002865,0.003986,-0.000937,0.000455,-0.00011,0.001358,0.000916,0.000843,0.001406,0.000211,0.00197
505,0.000202,0.000235,-0.000356,-0.00033,0.002967,0.004224,-0.000025,0.000462,0.000336,-0.000042,-0.000305,0.000077,0.000975,-0.000807,0.00091
504.5,-0.000037,0.000904,0.000091,-0.000955,0.003016,0.00464,-0.000349,0.000095,-0.00067,-0.000572,-0.001153,0.000892,-0.00068,0.000127,0.001647
504,0.000058,0.001576,-0.000116,-0.000317,0.003174,0.004345,0.000057,-0.000448,-0.000707,0.000696,0.001078,0.000019,-0.000028,-0.000036,0.001493
503.5,-0.000595,0.000013,-0.001148,-0.001927,0.003195,0.004217,-0.000186,0.000132,-0.00046,-0.000604,-0.000211,0.000173,0.000877,-0.000563,0.000638
503,0.000201,0.000631,-0.000322,-0.001011,0.003423,0.00485,-0.000117,0.000555,-0.000508,-0.000287,-0.000272,0.000197,0.001339,-0.000368,0.000624
502.5,0.000609,0.001667,-0.000715,-0.00053,0.002554,0.005548,0.001259,-0.000183,-0.000652,-0.000341,-0.001233,0.000518,0.000405,-0.000044,0.001258
502,-0.000375,-0.00051,-0.000376,-0.001466,0.00263,0.004049,-0.000696,-0.000753,-0.000839,0.000399,0.00023,0.000994,0.000567,-0.000527,0.000555
501.5,-0.000064,0.000615,-0.000883,-0.001122,0.002645,0.004467,-0.000397,-0.000409,-0.000342,-0.000241,-0.000436,0.000112,0.000578,-0.000026,0.001526
501,-0.000409,0.000487,-0.000291,-0.001184,0.003014,0.005391,0.00044,0.000921,-0.000157,0.000566,-0.000015,0.001355,0.001132,-0.000395,0.001135
500.5,0.000082,0.000768,0.000316,-0.000944,0.002802,0.006186,0.000164,0.000316,0.000312,0.000045,0.000103,0.000807,0.000953,-0.00047,0.001626
500,-0.000578,0.000879,-0.000155,-0.000315,0.003658,0.005056,0.000127,-0.00008,0.00022,0.000121,-0.00039,0.000514,0.000462,0.0001,0.001211
499.5,-0.00056,0.000276,-0.001113,-0.000341,0.002151,0.004517,0.000659,-0.000403,-0.000229,0.000202,0.000031,0.000196,0.000289,0.000048,0.001286
499,0.000352,0.000933,-0.001159,-0.000926,0.002383,0.004542,0.000019,-0.00042,-0.000387,-0.000705,-0.000445,0.000404,0.001087,-0.000051,0.000473
498.5,0.000168,0.000036,-0.000068,-0.001305,0.002972,0.004783,-0.000203,0.000191,-0.00047,-0.000251,-0.000553,0.000596,0.000573,-0.000932,0.001061
498,-0.000069,0.000708,-0.000138,-0.000942,0.003235,0.004586,0.000401,-0.000422,-0.000905,0.000233,-0.000147,0.00037,0.000642,-0.000348,0.000462
497.5,-0.000488,0.00011,-0.000338,-0.001145,0.002711,0.00459,0.000238,-0.000343,-0.000348,-0.000136,0.000013,0.00004,0.000316,-0.000314,0.001602
497,0.000725,0.000914,0.00017,-0.001344,0.002844,0.004953,0.000681,-0.000555,-0.000871,0.000241,-0.000381,0.000801,0.000497,-0.000698,0.00137
496.5,-0.000436,0.000179,-0.000075,-0.000995,0.002705,0.00483,0.000354,0.000899,0.000114,0.000194,-0.000051,0.000675,0.000769,0.000185,0.001627
496,-0.000521,0.000664,-0.000355,-0.000803,0.003239,0.004926,0.000049,0.000189,-0.000416,0.000238,-0.000277,0.000693,0.000389,-0.000719,0.00093
495.5,-0.00021,0.0004,-0.001149,-0.001464,0.002932,0.004732,-0.000471,0.000196,-0.000206,0.000109,0.000559,0.000292,-0.000107,-0.000667,0.000937
495,-0.000127,0.000915,-0.000279,-0.000867,0.003094,0.004254,0.000044,0.000345,-0.000817,0.000924,0.000411,0.000449,0.001191,-0.000103,0.00159
494.5,-0.000237,0.000347,-0.000743,-0.000951,0.002459,0.005599,0.000316,-0.000265,-0.000724,-0.000348,-0.000167,0.000876,0.000869,-0.000212,0.001047
494,-0.0002,0.000387,-0.000937,-0.000608,0.003237,0.004612,-0.000571,-0.000558,-0.001115,0.000089,-0.000556,0.00008,0.000541,-0.00058,0.001073
493.5,-0.000598,0.000859,-0.000244,-0.000812,0.003074,0.004047,-0.001098,0.000249,-0.000175,0.000026,-0.000209,-0.00008,0.000398,-0.000616,0.001197
493,0.000058,0.000415,-0.000674,-0.000637,0.00355,0.004841,-0.000327,-0.000244,-0.001049,0.000392,-0.000195,0.000835,0.000551,-0.000207,0.001193
492.5,0.000524,0.001076,-0.000749,-0.000989,0.003037,0.004812,-0.000066,0.00011,-0.000623,0.00006,-0.000128,0.000408,0.000547,-0.000806,0.000918
492,-0.000319,0.000078,-0.000562,-0.000899,0.00315,0.004407,-0.000153,-0.000175,-0.000635,0.000321,0.00003,0.000447,0.000546,-0.000405,0.001168
491.5,0.000066,0.00082,-0.000877,-0.00054,0.003161,0.004635,-0.000461,0.000139,-0.000341,0.000007,-0.000276,0.00051,0.000405,-0.000199,0.001322
491,-0.000303,0.000384,-0.00028,-0.00089,0.003469,0.004202,-0.000214,-0.000068,-0.000503,-0.000064,-0.000507,0.000771,0.001053,-0.000415,0.000905
490.5,0.000124,0.000179,-0.00021,-0.000403,0.003126,0.004816,0.000328,0.000028,-0.000773,-0.000317,-0.00027,0.000306,0.00021,-0.000041,0.001051
490,0.000014,0.000767,0.000104,-0.001067,0.003138,0.004879,0.000072,0.000191,-0.000682,0.000323,0.000009,0.000318,0.000612,0.000035,0.002211
489.5,-0.000361,0.000485,-0.000579,-0.001233,0.002779,0.004537,-0.000155,-0.000178,-0.000669,0.00011,-0.000701,0.001237,0.000569,0.000378,0.001444
489,0.000107,0.000598,-0.000203,-0.000698,0.002965,0.004492,0.000155,0.000132,-0.000461,0.000056,0.000447,0.000901,0.000732,0.000036,0.001522
488.5,-0.000169,0.000261,-0.000337,-0.000739,0.002969,0.004761,-0.000037,-0.000125,-0.000629,0.000158,0.000096,0.000396,0.000265,-0.000124,0.00127
488,-0.000005,0.000547,-0.000267,-0.001152,0.00313,0.004642,-0.000438,-0.000452,-0.000657,0.000126,-0.000187,0.000688,0.000639,-0.000504,0.001036
487.5,0.000119,0.000742,-0.000651,-0.000864,0.002865,0.004673,-0.000182,-0.000204,-0.000336,0.000398,-0.000038,0.000748,0.000605,0.000061,0.001379
487,0.000067,0.000445,-0.000373,-0.000841,0.00281,0.004853,0.000156,0.000072,-0.000527,0.000409,-0.000289,0.000533,0.000525,-0.000004,0.001207
486.5,-0.000266,0.000482,-0.00006,-0.00094,0.002956,0.004375,-0.000637,-0.000005,-0.000365,0.00029,-0.000376,0.000678,0.000732,0.000081,0.001512
486,0.000043,0.000738,-0.000351,-0.000721,0.003454,0.004351,-0.000245,-0.0002,-0.000579,0.000793,0.000338,0.000412,0.00026,-0.000082,0.001423
485.5,-0.000013,0.000653,-0.000638,-0.000948,0.003074,0.004702,-0.000007,-0.000064,-0.000759,0.000126,-0.000088,0.000552,0.000518,-0.000313,0.001234
485,-0.000032,0.000501,-0.000605,-0.000645,0.003421,0.004374,-0.00034,-0.00007,-0.000246,0.000353,0.000037,0.000616,0.000372,-0.000313,0.001073
484.5,0.000244,0.000628,-0.000442,-0.000759,0.003,0.004933,-0.000524,-0.000011,-0.000649,0.000169,-0.000361,0.000372,0.000387,-0.000012,0.001307
484,0.000037,0.000652,-0.000467,-0.000832,0.003024,0.00425,-0.000282,-0.00007,-0.000381,0.000375,-0.000014,0.00052,0.000173,-0.000062,0.001354
483.5,-0.000182,0.000287,-0.000472,-0.000824,0.003084,0.004492,-0.000354,0.000038,-0.0006,0.000445,0.0001,0.000607,0.000624,-0.000013,0.001118
483,-0.00039,0.000484,-0.000552,-0.000814,0.002952,0.004378,-0.000088,-0.000091,-0.000379,0.000266,-0.0002,0.000952,0.000555,0.000182,0.00135
482.5,0.000339,0.000883,-0.000087,-0.001041,0.003213,0.004709,0.000188,-0.000073,-0.000369,-0.000049,-0.000181,0.000479,0.000261,0.000094,0.001632
482,0.000388,0.000925,-0.000249,-0.000996,0.00276,0.005222,0.000559,-0.000336,-0.001179,0.000403,-0.000186,0.000496,0.000501,-0.000236,0.001237
481.5,0.000115,0.000569,-0.000485,-0.000637,0.003606,0.004687,-0.000328,-0.000289,-0.000391,-0.000082,-0.000582,0.000616,0.000491,0.000275,0.001695
481,0.000151,0.000659,-0.00099,-0.000036,0.003856,0.004658,-0.000039,-0.000256,-0.000272,0.000249,0.000028,0.000735,0.000292,0.000213,0.001394
480.5,-0.000176,0.000405,-0.000059,-0.000918,0.003306,0.005069,-0.000308,-0.000413,-0.000705,0.000518,-0.000202,0.000672,0.000549,0.000564,0.001722
480,0.000398,0.000725,-0.000828,-0.000342,0.003653,0.004564,-0.000392,-0.000064,-0.000159,-0.000302,-0.000136,0.000983,0.001458,-0.000826,0.000988
479.5,0.00006,0.000995,-0.000399,-0.000801,0.002794,0.004494,0.000077,-0.00038,-0.000673,0.000175,-0.000572,0.000749,0.000884,0.000181,0.001741
479,-0.000054,0.000616,-0.000426,-0.001392,0.002706,0.005352,0.000455,0.00012,-0.00007,0.000046,-0.000295,0.00017,-0.000056,-0.000112,0.000988
478.5,-0.000195,0.000528,-0.000298,-0.00162,0.002937,0.0046,-0.000711,-0.000356,-0.000681,0.000644,0.00075,0.000085,0.00032,-0.000491,0.000935
478,-0.000674,0.000404,-0.000088,-0.000689,0.004038,0.00461,-0.000283,-0.000086,-0.000145,0.000158,-0.000107,0.001027,0.001007,-0.000433,0.001401
477.5,-0.000145,0.000551,-0.00023,-0.000996,0.002816,0.004989,0.000275,0.000208,-0.00072,0.000018,-0.000244,0.00039,0.000871,-0.000253,0.001089
477,-0.000569,0.000204,-0.000712,-0.000778,0.003643,0.005008,0.000333,0.000229,-0.000272,0.000502,-0.000317,0.000593,0.000417,-0.000007,0.001424
476.5,0.000058,0.000542,-0.000535,-0.000827,0.00349,0.004884,-0.000142,-0.000081,-0.00121,0.000487,-0.000199,0.000926,0.000774,-0.000009,0.001484
476,-0.000248,0.000287,-0.000829,-0.001059,0.002868,0.004592,-0.000098,-0.000289,-0.000927,0.000377,-0.000048,0.000139,0.000254,-0.001022,0.001437
475.5,0.000457,0.001285,-0.001171,-0.000848,0.00343,0.00487,-0.000057,-0.000363,-0.001095,0.000135,-0.000525,0.000421,0.000115,0.000517,0.001114
475,-0.00007,0.00042,-0.00074,-0.00138,0.002692,0.004522,-0.0006,-0.000602,-0.000589,-0.000162,-0.000541,0.000401,0.0002,-0.000127,0.001877
474.5,0.000026,0.000664,-0.000445,-0.001443,0.002819,0.005123,0.000367,0.00003,-0.000228,0.000595,0.000099,0.000838,0.000671,0.000141,0.001526
474,-0.000023,0.000449,-0.000295,-0.000634,0.002921,0.004887,-0.000222,-0.000827,-0.001074,0.000827,0.000509,0.000604,0.000804,-0.000534,0.00093
473.5,0.000476,0.001325,-0.000477,-0.000884,0.003392,0.00448,0.000033,-0.000189,-0.001092,0.00046,0.000174,0.000983,0.00084,0.000057,0.001734
473,-0.000364,-0.000024,-0.000368,-0.001148,0.002942,0.005284,0.00003,-0.000244,-0.000752,0.000108,-0.000227,0.00009,0.000084,-0.000045,0.001478
472.5,0.000086,0.000839,-0.000283,-0.00114,0.002913,0.004548,-0.000153,-0.000081,-0.000614,-0.000063,-0.000292,0.000569,0.000408,-0.000404,0.001269
472,-0.000061,0.000274,-0.000031,-0.001264,0.003621,0.00463,-0.000088,-0.000129,-0.001022,-0.00047,-0.0002,0.00064,0.000425,-0.000119,0.001608
471.5,0.000025,0.000489,-0.000376,-0.001107,0.002893,0.005404,-0.000195,0.000055,-0.000621,0.000014,-0.000826,-0.000188,-0.00013,0.000197,0.001358
471,0.000027,0.000751,-0.00104,-0.001189,0.002985,0.004616,0.000191,-0.000283,-0.000775,0.000112,-0.00045,0.001103,0.000135,-0.00051,0.00107
470.5,0.000597,0.00119,-0.000288,-0.000689,0.003542,0.00482,-0.000383,0.000028,-0.000678,0.000124,-0.000575,0.000559,0.000492,0.000501,0.001639
470,-0.000003,0.000048,-0.001123,-0.000954,0.00331,0.005143,0.000293,-0.000717,-0.000704,-0.000112,0.000174,0.000797,0.000965,-0.000198,0.001107
469.5,0.000139,0.000355,0.00028,-0.000587,0.0034,0.005081,0.000223,-0.000377,-0.00057,0.000586,0.000402,0.000504,0.000966,-0.00047,0.001356
469,-0.000201,0.000565,-0.001068,-0.000969,0.003355,0.00466,-0.000364,-0.000017,-0.000341,-0.000152,-0.00049,0.001013,0.000578,-0.000294,0.001334
468.5,0.000148,0.001028,-0.001148,-0.00064,0.003556,0.004406,-0.000407,-0.00048,-0.000666,0.000114,-0.000088,0.000905,0.000597,-0.000339,0.001181
468,0.000266,0.000962,-0.000377,-0.000537,0.003154,0.00522,-0.000025,-0.000305,-0.000961,-0.000181,-0.000286,0.00027,0.000341,-0.000357,0.001427
467.5,0.000508,0.000787,-0.000356,-0.000704,0.00313,0.00493,0.000285,0.000013,-0.000342,0.000507,-0.000024,0.000399,0.000516,-0.000305,0.001172
467,-0.000194,0.000421,0.00009,-0.000861,0.003026,0.005211,-0.000159,-0.000257,-0.000622,0.00039,0.000479,0.000688,0.00016,-0.00029,0.001387
466.5,0.000197,0.000506,-0.000937,-0.001024,0.003099,0.005153,-0.000232,-0.000462,-0.000612,0.000794,-0.000015,0.00019,0.000645,-0.000264,0.000631
466,-0.000335,0.000156,-0.000668,-0.000903,0.003195,0.004877,-0.000385,-0.000244,-0.000984,0.000398,0.000091,0.000657,0.000505,-0.000581,0.001146
465.5,0.000147,0.000883,-0.000321,-0.001236,0.002963,0.005164,0.000007,0.000247,-0.000409,0.000289,-0.000019,0.000256,0.000448,0.000298,0.00137
465,0.000072,0.00087,-0.000509,-0.001294,0.002964,0.00478,-0.000553,0.00006,-0.000695,0.000282,-0.000099,0.000487,0.000661,-0.000131,0.001461
464.5,0.000041,0.000698,-0.000751,-0.001044,0.002949,0.004982,0.000232,-0.000332,-0.000628,0.000663,0.000008,0.000504,0.000284,-0.000573,0.000901
464,0.00007,0.000808,-0.000417,-0.001156,0.002941,0.004729,0.000331,0.000259,-0.000479,-0.000131,-0.000217,0.000483,0.000245,0.000007,0.000948
463.5,-0.000355,0.000698,0.000008,-0.001444,0.002618,0.004489,-0.000325,0.000188,-0.000531,0.000187,-0.000337,0.000918,0.000768,0.000025,0.001275
463,-0.000336,0.000821,-0.000025,-0.001132,0.002801,0.004836,-0.000117,-0.000392,-0.000721,0.000923,0.000678,0.000816,0.000922,0.000571,0.001589
462.5,0.000353,0.000621,-0.001029,-0.000922,0.002817,0.005114,-0.000408,0.000022,-0.000483,-0.000045,-0.000507,0.00127,0.000837,0.00008,0.001432
462,0.000206,0.00048,-0.000863,-0.001051,0.002895,0.005188,0.000183,-0.000369,-0.000863,0.000353,0.000023,0.000102,0.000475,-0.000105,0.001229
461.5,0.000107,0.000431,-0.00068,-0.000635,0.003428,0.005119,-0.000331,-0.000009,-0.000784,0.000154,-0.000064,0.000917,0.00074,-0.000269,0.001063
461,0.000284,0.000788,-0.000911,-0.001403,0.002823,0.005325,0.000126,-0.000429,-0.00109,0.000009,-0.000228,0.000924,0.001019,0.000126,0.001508
460.5,-0.000205,0.000544,-0.00086,-0.001395,0.003122,0.004947,0.000004,0.000358,0.000099,0.000874,0.000392,0.000442,0.000533,-0.000547,0.00139
460,0.000463,0.000889,-0.000329,-0.001371,0.003051,0.005428,-0.000022,-0.00023,-0.000606,0.000404,0.000085,0.000198,0.000368,-0.000328,0.001452
459.5,-0.000155,0.000519,-0.000686,-0.001079,0.002934,0.005086,-0.000063,-0.000115,-0.000432,0.000688,-0.000311,0.000833,0.00127,-0.000294,0.001035
459,0.000024,0.000699,-0.000306,-0.001173,0.00317,0.005067,0.000179,0.000021,-0.00065,0.000331,0.000058,0.000388,0.000359,-0.000064,0.001279
458.5,0.000021,0.000731,-0.000367,-0.001091,0.002766,0.004915,-0.000405,-0.000266,-0.000754,0.000078,0.000071,0.000327,0.000455,0.00017,0.001313
458,0.000561,0.001373,-0.000377,-0.001077,0.003885,0.004751,-0.000295,0.00007,0.000009,0.000391,-0.000295,-0.000037,0.000875,0.000083,0.001251
457.5,0.000286,0.000747,-0.00014,-0.000882,0.003043,0.005293,0.00026,-0.000428,-0.000809,0.000142,0.000056,0.000283,0.000412,-0.000026,0.001727
457,0.000044,0.000896,-0.000714,-0.000507,0.003873,0.005518,0.000086,-0.00015,-0.00038,-0.000259,-0.000371,0.000093,0.000236,0.000111,0.001427
456.5,-0.000038,0.000561,-0.000176,-0.000997,0.003565,0.005253,-0.000144,-0.000337,-0.000647,0.000398,0.00005,0.000554,0.000277,-0.000301,0.000821
456,-0.000341,0.000463,-0.000921,-0.001016,0.003055,0.004868,0.000104,-0.000053,-0.000688,0.000616,0.000491,0.000886,0.00023,0.000083,0.001286
455.5,-0.000115,0.00026,-0.000484,-0.001429,0.003214,0.005189,-0.000312,-0.000623,-0.001518,-0.000302,-0.00086,0.00012,0.001098,0.000207,0.001428
455,-0.000694,0.000236,-0.000352,-0.000297,0.003395,0.004598,-0.000241,0.000373,-0.000611,0.000681,0.00005,0.000652,0.00062,-0.000004,0.001044
454.5,0.000958,0.000997,-0.000899,-0.00079,0.003181,0.005584,0.000584,-0.000035,-0.000763,-0.000066,-0.00013,0.000857,0.000703,0.000457,0.001451
454,-0.000089,0.000664,-0.000474,-0.001145,0.002927,0.004893,0.000141,-0.000102,-0.000456,0.000298,-0.000256,-0.000147,0.000453,-0.000008,0.001387
453.5,0.00004,0.00107,-0.000428,-0.001053,0.003534,0.005068,-0.000361,0.0002,-0.000784,0.000515,0.000176,0.000515,0.000497,-0.000163,0.001152
453,0.000118,0.000713,-0.001049,-0.001155,0.003714,0.004874,-0.000207,-0.000209,-0.000609,-0.000045,0.000412,0.000407,0.000551,-0.000152,0.001405
452.5,0.000502,0.00116,-0.000819,-0.000898,0.003157,0.005147,0.000067,0.000107,-0.000555,0.00015,-0.000199,0.000686,0.000772,-0.000084,0.001719
452,-0.000514,0.000788,-0.000355,-0.001106,0.003211,0.005319,0.000456,-0.000216,-0.000389,0.000481,0.000098,0.000037,0.0004,-0.000358,0.001235
451.5,-0.000418,0.000617,0.000207,-0.001429,0.003441,0.00524,-0.000234,-0.00018,-0.000661,0.000289,0.000065,0.000622,0.000742,-0.000388,0.000957
451,0.000721,0.000875,-0.000153,-0.001656,0.003197,0.00466,-0.000274,-0.000076,-0.000925,0.00039,-0.000293,0.000537,0.00093,0.000334,0.001976
450.5,-0.000176,0.000676,-0.000506,-0.000828,0.003361,0.004932,-0.000421,0.000064,-0.000728,-0.000037,0.000033,0.001134,0.000832,0.00004,0.001763
450,0.000289,0.000837,-0.000478,-0.000536,0.0035,0.00509,-0.000207,0.000143,-0.000638,0.000024,-0.000075,0.001256,0.001128,-0.000173,0.001387
449.5,-0.000496,0.000646,-0.000347,-0.001096,0.003333,0.004666,-0.000399,0.000218,-0.000487,0.000054,-0.00003,0.000458,0.000492,-0.000504,0.00134
449,0.000129,0.000663,-0.00053,-0.001106,0.0033,0.005109,0.00037,0.000249,-0.000631,0.00059,0.000227,0.000598,0.001023,0.00025,0.001582
448.5,0.000155,0.000939,-0.000438,-0.001025,0.003694,0.005205,-0.000116,0.000086,-0.000434,0.000671,0.000049,0.000852,0.000787,-0.000084,0.001342
448,-0.000064,0.000834,-0.00025,-0.001275,0.003023,0.005127,-0.000047,-0.000065,-0.00033,0.000103,-0.000158,0.000007,0.000133,-0.000049,0.001678
447.5,0.000371,0.00074,-0.000796,-0.001232,0.003086,0.00531,-0.000001,-0.000717,-0.001112,0.000054,-0.000327,0.000222,0.000566,-0.000295,0.001581
447,-0.000079,0.00086,-0.00058,-0.000358,0.003723,0.005156,0.000135,-0.000181,-0.000771,0.000729,0.000397,0.000609,0.001166,0.00047,0.00168
446.5,0.000085,0.000424,-0.000261,-0.000713,0.003648,0.004663,-0.000228,-0.000308,-0.000204,0.00021,-0.000399,0.000286,0.000223,0.000071,0.000378
446,0.00014,0.000996,-0.000135,-0.001436,0.003192,0.005501,0.000201,0.000309,-0.000286,0.000421,-0.000078,0.001117,0.000758,0.000472,0.00202
445.5,0.000413,0.00136,-0.000743,-0.00056,0.003321,0.004875,-0.000571,0.000271,-0.000851,0.000516,-0.000349,0.000208,0.000743,0.000001,0.0013
445,0.000146,0.000844,-0.000471,-0.00091,0.002867,0.005228,-0.000115,0.000094,-0.000404,-0.000026,-0.000346,0.000635,0.00064,0.000101,0.00181
444.5,-0.000177,0.000762,-0.000902,-0.000851,0.003472,0.005043,0.000164,-0.000156,-0.000727,0.000356,-0.000079,0.000954,0.000809,0.000035,0.001
444,-0.000142,0.000533,-0.000269,-0.000986,0.003433,0.005381,-0.000228,-0.000673,-0.000781,0.000041,-0.000776,0.000909,0.00064,0.000109,0.001589
443.5,-0.000352,0.000499,-0.000722,-0.000753,0.003414,0.004748,-0.000302,0.000234,0.000153,0.000158,-0.000646,0.000489,0.000305,-0.000369,0.001106
443,0.000234,0.000948,-0.000446,-0.000763,0.003791,0.005705,0.000421,0.000025,-0.000667,-0.000349,-0.000589,0.000516,0.000539,0.000302,0.001808
442.5,0.000671,0.001229,-0.00079,-0.000777,0.003358,0.005068,0.000116,0.000327,-0.000606,0.000588,-0.000553,0.000889,0.000823,-0.000083,0.00167
442,-0.000189,0.000613,-0.001095,-0.000858,0.00367,0.004884,-0.000043,-0.000479,-0.00071,0.000147,-0.000345,0.001065,0.000887,0.00018,0.001739
441.5,-0.000041,0.001365,-0.000554,-0.001538,0.002928,0.005453,-0.000263,-0.000484,-0.000562,0.000231,-0.000193,0.000591,0.000774,0.000395,0.001418
441,-0.000137,0.000347,-0.000527,-0.001101,0.003738,0.005237,-0.000314,0.000155,-0.000447,-0.000036,-0.000288,0.000504,0.00041,0.000046,0.001252
440.5,-0.000129,0.000945,-0.000302,-0.00125,0.003949,0.005559,0.000056,-0.000023,-0.000199,0.000353,-0.000029,-0.000025,0.000609,-0.0002,0.001444
440,-0.000028,0.00065,-0.000748,-0.001195,0.002993,0.005687,0.000253,-0.000395,-0.000665,0.000287,0.000357,0.000564,0.000768,-0.000174,0.001441
439.5,0.000089,0.001101,-0.000655,-0.000836,0.003657,0.005023,0.000281,-0.000062,-0.000645,0.000805,0.000346,0.000999,0.00082,-0.000589,0.00061
439,-0.000339,0.000688,-0.000792,-0.001197,0.003544,0.005465,-0.000115,-0.00064,-0.000815,0.00004,-0.000279,0.000491,0.001021,-0.000181,0.001441
438.5,0.000123,0.001026,-0.000641,-0.000998,0.003339,0.005005,0.000387,0.000149,-0.000438,-0.000087,-0.000131,0.001002,0.000856,0.000033,0.001428
438,-0.000497,0.000786,0.000221,-0.001206,0.003394,0.005805,-0.000261,0.000045,-0.000303,0.000125,-0.000323,0.000363,0.000114,-0.000845,0.000995
437.5,-0.000258,0.000737,-0.000773,-0.001064,0.003103,0.005912,0.000263,-0.000105,-0.000958,-0.000076,-0.000615,0.000416,0.00098,0.000172,0.001652
437,-0.000098,0.001105,-0.00008,-0.001633,0.002546,0.005768,0.000294,-0.000525,-0.000802,0.000633,0.000265,0.000981,0.000876,-0.00007,0.001203
436.5,0.00009,0.001015,-0.000756,-0.000849,0.00407,0.004978,-0.000516,-0.000181,-0.000708,0.000161,0.000148,0.001365,0.000688,-0.000295,0.001374
436,-0.000086,0.000849,-0.001044,-0.001347,0.003272,0.004895,-0.000175,-0.000228,-0.000774,-0.00022,-0.000951,0.001113,0.000545,0.000062,0.001415
435.5,0.000406,0.00123,-0.00034,-0.000912,0.003797,0.005378,-0.000143,0.000036,-0.000564,0.00041,0.000062,0.000551,0.000541,0.000137,0.001603
435,-0.000303,0.000889,-0.000578,-0.000557,0.003949,0.005002,-0.000275,-0.000282,-0.000889,0.000103,-0.000391,0.001026,0.000321,0.000291,0.001529
434.5,-0.000039,0.000687,-0.00052,-0.000669,0.003596,0.004984,-0.000073,0.000226,-0.000542,-0.000712,-0.000838,0.000029,0.000229,0.000056,0.001365
434,0.000217,0.000668,-0.000697,-0.00146,0.003447,0.005437,-0.000425,-0.00031,-0.000698,0.000659,-0.000056,0.000416,0.00094,0.00006,0.001962
433.5,0.000626,0.001145,-0.000464,-0.00091,0.003673,0.005696,-0.000272,-0.000173,-0.000811,0.000319,-0.000364,0.000098,0.000568,-0.000386,0.00097
433,-0.000279,0.000957,0.000033,-0.001257,0.00316,0.005709,0.0004,-0.00025,-0.000445,-0.000037,-0.000603,0.000084,0.00042,-0.000639,0.000958
432.5,0.000447,0.000909,-0.000722,-0.001159,0.00379,0.005088,-0.000098,-0.00037,-0.000535,0.000208,-0.000002,0.001033,0.000941,-0.000332,0.001596
432,0.000222,0.000742,-0.000052,-0.000766,0.003984,0.005504,-0.00006,-0.000041,0.000512,0.000764,0.000079,0.001171,0.000951,0.000374,0.001545
431.5,0.000281,0.001221,-0.000331,-0.00136,0.003461,0.005279,-0.000631,0.000134,-0.00051,0.000545,-0.000271,0.000538,0.000657,0.000234,0.001513
431,0.000266,0.000541,-0.000865,-0.000734,0.003577,0.004857,-0.000405,0.000103,-0.000411,0.000191,-0.000382,0.000247,0.000418,0.000179,0.001441
430.5,0.000789,0.001307,0.000017,-0.000857,0.003221,0.005062,-0.000245,-0.000608,-0.00099,0.000206,-0.000124,0.001127,0.000741,0.000018,0.001736
430,0.000377,0.001306,-0.000128,-0.000982,0.003695,0.005399,-0.000002,0.000227,-0.000218,-0.000135,-0.00023,0.00097,0.000622,-0.000229,0.001441
429.5,0.000008,0.000853,0.000176,-0.000976,0.003658,0.005537,0.000333,-0.000623,-0.000697,0.000273,0.000026,0.00021,0.000823,0.000128,0.001851
429,0.000257,0.000516,-0.000723,-0.001081,0.00305,0.005017,-0.000301,0.000107,-0.00042,0.000153,-0.000671,0.000857,0.000958,0.000338,0.001626
428.5,-0.000395,0.000394,-0.000289,-0.000803,0.003568,0.005435,-0.000067,-0.000147,-0.000543,0.000073,-0.000128,0.000812,0.000341,-0.000164,0.001782
428,-0.000002,0.000697,0.000179,-0.000723,0.003459,0.005213,0.00004,-0.000239,-0.000532,-0.000118,-0.000236,0.000284,0.000254,0.00038,0.001105
427.5,-0.000285,0.000456,-0.000818,-0.000906,0.003409,0.005221,-0.000099,-0.000199,-0.000551,-0.000153,-0.000174,0.000263,0.000639,0.000091,0.001358
427,0.000081,0.000715,-0.000704,-0.001279,0.003657,0.005822,0.000313,0.000131,-0.000133,0.000443,0.000526,0.000203,0.000285,0.000155,0.001313
426.5,0.00027,0.000787,-0.00032,-0.001532,0.00343,0.005468,-0.000021,-0.000119,-0.000396,-0.000273,-0.000274,0.00047,0.000505,0.000218,0.001429
426,-0.000155,0.000639,-0.000833,-0.001004,0.0036,0.005341,0.000117,0.000078,-0.000605,0.000302,-0.000001,0.000694,0.000981,-0.000195,0.001432
425.5,0.000217,0.000953,-0.000285,-0.000666,0.003831,0.004827,-0.000418,-0.000131,-0.000704,0.000164,0.000142,0.000928,0.000909,0.000374,0.001488
425,0.000055,0.001296,-0.000621,-0.001254,0.004186,0.00529,0.000254,0.000565,-0.000253,-0.000133,-0.000511,0.000609,0.000795,0.000373,0.001482
424.5,0.000067,0.001186,-0.00049,-0.001003,0.003954,0.005649,-0.000433,0.000246,-0.00029,0.000499,-0.000261,0.000805,0.001005,0.000367,0.001597
424,-0.000076,0.000854,-0.000691,-0.001065,0.003703,0.005592,0.000004,0.000005,-0.000709,0.000292,-0.000084,0.000505,0.00081,-0.000192,0.00151
423.5,0.000147,0.000823,-0.000433,-0.001,0.003837,0.005391,-0.000331,-0.000322,-0.000902,0.000466,0.000246,0.0003,0.000814,0.000008,0.001771
423,0.00004,0.000657,-0.000819,-0.000471,0.004182,0.005392,0.000229,-0.000324,-0.000378,0.000503,-0.000375,0.000361,0.000368,0.000497,0.002322
422.5,0.000219,0.001095,-0.000355,-0.001059,0.004252,0.005536,0.0005,-0.000288,-0.001021,0.00012,-0.000424,0.000814,0.001389,-0.000102,0.001415
422,0.000441,0.00071,-0.00077,-0.000922,0.004027,0.0057,0.000304,0.000119,-0.000483,0.000319,-0.000126,0.000638,0.000773,-0.000241,0.00133
421.5,-0.000206,0.000783,0.000015,-0.001012,0.004093,0.005116,-0.000251,-0.000163,-0.000599,0.000531,0.000159,0.000635,0.000621,-0.000345,0.001855
421,0.000417,0.001302,-0.000539,-0.000973,0.003991,0.005791,0.000083,0.000073,-0.000295,0.000387,-0.000461,0.00015,0.000407,-0.00035,0.001235
420.5,0.000259,0.001153,-0.000971,-0.001175,0.003563,0.005606,-0.000169,-0.000604,-0.00071,-0.000029,-0.000405,0.000994,0.000633,0.000444,0.001919
420,-0.000449,0.000645,-0.000692,-0.000999,0.003146,0.005916,0.000724,-0.0006,-0.000432,0.000421,-0.000077,0.000485,0.000315,0.000177,0.000822
419.5,-0.000178,0.000787,-0.000352,-0.000567,0.004117,0.005789,-0.000103,-0.000049,-0.000314,0.000164,-0.000198,0.000618,0.000688,-0.000169,0.00109
419,0.000196,0.000913,-0.000492,-0.001258,0.003568,0.006003,0.000177,0.000149,-0.000563,0.000163,0.000154,0.000924,0.00085,-0.000612,0.001496
418.5,0.000198,0.000723,-0.000784,-0.001217,0.003345,0.005145,-0.000463,-0.000342,-0.00032,0.000999,0.000136,0.000919,0.000824,-0.000468,0.001039
418,-0.000322,0.000132,-0.000307,-0.001296,0.003671,0.005295,-0.000279,-0.000051,-0.000467,-0.000392,-0.000055,0.000451,0.000614,0.000656,0.001765
417.5,0.000001,0.000763,-0.00069,-0.001473,0.003631,0.005396,0.000165,0.000437,-0.000504,0.000433,-0.0004,0.000412,0.001459,0.000402,0.001856
417,-0.000929,0.000217,-0.000093,-0.001215,0.003785,0.005972,0.000076,-0.000445,-0.000842,0.000007,0.000381,0.00055,0.001208,0.000449,0.001541
416.5,-0.000131,0.000259,-0.000672,-0.0007,0.003923,0.004923,-0.000347,-0.000366,-0.000336,0.000062,0.000376,-0.000052,-0.00044,-0.000024,0.001223
416,-0.000041,0.001007,-0.000923,-0.000825,0.003377,0.005533,0.000001,0.000446,-0.000846,0.000508,-0.000286,0.001314,0.001103,-0.000115,0.001624
415.5,0.000363,0.001143,-0.000557,-0.001235,0.003771,0.005442,0.000072,-0.000386,-0.000979,-0.000003,0.000183,0.000688,0.000629,0.000558,0.002111
415,-0.000465,0.000278,-0.000705,-0.001161,0.003178,0.005398,0.000189,-0.000065,-0.000704,0.000221,-0.000538,0.000457,0.000834,0.000248,0.001587
414.5,0.000278,0.00099,-0.001108,-0.00127,0.00382,0.005343,0.000311,-0.000004,-0.001202,-0.000384,-0.000471,0.000541,0.000382,-0.000008,0.001534
414,0.000579,0.001552,-0.000802,-0.00085,0.003777,0.005022,-0.00027,0.000078,-0.000439,0.000387,-0.000089,0.000449,0.000729,0.000586,0.001701
413.5,-0.000525,0.000957,-0.000391,-0.001026,0.003808,0.005396,0.000021,-0.000019,-0.000364,-0.000632,0.000247,0.000495,0.000771,0.000393,0.001958
413,-0.000007,0.000908,-0.000171,-0.001438,0.003345,0.005766,0.000192,-0.000328,-0.000501,0.000314,0.000294,0.00018,0.00054,0.000541,0.001521
412.5,-0.000267,0.000337,-0.000194,-0.00043,0.003357,0.006115,0.00009,0.000006,-0.000578,0.000613,0.000358,0.000639,0.000791,0.000742,0.002034
412,0.000013,0.000732,-0.000306,-0.001806,0.003862,0.005815,0.000429,0.000514,0.000203,0.000398,-0.000238,-0.000059,0.00067,0.0003,0.001427
411.5,-0.00016,0.000552,-0.000303,-0.00109,0.003726,0.005904,-0.000129,-0.000039,-0.000502,-0.000174,-0.000593,0.001064,0.001333,-0.00001,0.001096
411,-0.000547,-0.000046,-0.000168,-0.00086,0.003643,0.005834,0.000934,-0.000275,-0.000626,-0.000447,0.000152,0.000462,0.000073,0.000455,0.001655
410.5,-0.000054,0.000926,0.000096,-0.001462,0.003642,0.005103,-0.000147,0.000141,-0.00102,0.000907,0.000501,0.000872,0.001299,-0.000005,0.001979
410,0.000058,0.000738,-0.001243,-0.001117,0.003778,0.005765,0.000079,0.00027,-0.000308,-0.000172,-0.000672,0.000957,0.0012,0.000516,0.001497
409.5,-0.000119,0.001076,-0.001038,-0.001745,0.00337,0.004911,0.000054,-0.000582,-0.000391,0.000335,0.000298,0.000474,0.000534,0.000855,0.002026
409,0.000078,0.000748,-0.000564,-0.000328,0.004207,0.005497,0.000422,-0.000796,-0.000539,0.001025,-0.000405,0.001657,0.000867,-0.000614,0.001573
408.5,0.000143,0.001163,-0.001171,-0.001615,0.004173,0.005694,-0.000428,-0.000254,-0.000227,-0.000445,0.000174,0.001082,0.001195,0.000365,0.002542
408,-0.000223,-0.000014,-0.00053,-0.000403,0.004893,0.006176,0.000486,-0.00016,-0.000975,0.000694,0.000017,0.000416,0.000753,0.000409,0.001048
407.5,-0.000119,0.001025,-0.00067,-0.000716,0.004228,0.005565,0.0004,-0.000377,-0.000354,0.000206,0.000772,0.000467,0.001175,0.000079,0.002132
407,0.000592,0.000871,-0.000591,-0.001388,0.003861,0.00564,0.000372,-0.000076,-0.000952,0.000183,0.000118,0.001116,0.000406,-0.000487,0.002171
406.5,-0.000471,0.000596,-0.000803,-0.000826,0.004116,0.005811,0.000326,-0.000076,-0.000272,0.000001,-0.000079,0.000026,-0.000066,0.000487,0.001201
406,-0.000103,0.001203,-0.001218,-0.000655,0.004478,0.006145,0.000016,0.000425,-0.000165,0.000554,-0.000044,0.000383,0.000336,0.000433,0.001755
405.5,0.000099,0.001166,-0.00032,-0.000948,0.004183,0.004907,-0.000993,0.000035,-0.000496,0.000886,0.00073,0.001293,0.000677,0.000542,0.002123
405,0.000334,0.001318,-0.00004,-0.000919,0.004244,0.005748,-0.000241,-0.000223,-0.000452,0.000082,0.000073,0.000407,0.000584,-0.000388,0.001096
404.5,0.000399,0.001063,-0.000858,-0.001389,0.00428,0.005176,0.00107,-0.000603,-0.000888,0.00033,-0.00044,0.000313,0.000522,0.000226,0.001097
404,-0.000869,-0.000302,-0.000537,-0.000108,0.003669,0.005733,0.000001,-0.000431,-0.000579,0.000549,-0.000166,0.000883,0.000766,-0.000279,0.002047
403.5,0.000273,0.000922,-0.000399,-0.001639,0.004272,0.004787,0.000261,-0.000137,-0.000566,0.000482,-0.000273,0.001415,0.000946,0.000362,0.002261
403,-0.000365,0.001708,-0.000596,-0.000657,0.004759,0.0057,0.000687,-0.000353,-0.001568,0.000154,0.0011,0.001152,0.000852,0.000512,0.001893
402.5,-0.00021,0.001176,0.000031,0.000157,0.00398,0.006186,0.000169,0.000601,-0.000084,0.001102,0.001054,0.000362,0.000911,-0.000683,0.002398
402,0.000055,0.000981,-0.000916,-0.000787,0.003825,0.00575,-0.000004,-0.00059,-0.001263,-0.00061,-0.000201,0.000117,0.000045,0.000953,0.001746
401.5,0.0002,0.000233,-0.000786,-0.000856,0.004396,0.005042,-0.000379,0.000868,-0.000078,0.000889,-0.000469,0.000613,0.001202,0.001332,0.001249
401,0.00013,0.000479,-0.000186,-0.00157,0.003516,0.006539,0.00008,-0.00022,-0.000362,0.000298,-0.00051,0.001333,0.001322,0.000294,0.001786
400.5,-0.000316,0.00073,-0.000519,-0.000909,0.004448,0.006317,0.000327,-0.00051,-0.00077,-0.000006,-0.000077,-0.00061,-0.000131,-0.000633,0.001202
400,-0.000525,0.000021,0.000104,-0.00034,0.004938,0.006062,0.00088,-0.000797,-0.001404,0.000372,0.000246,0.00077,0.001582,0.00068,0.001159
399.5,0.000383,0.000926,0.000442,-0.000465,0.003786,0.006313,0.000035,-0.000042,0.00023,0.000464,0.000111,0.001007,0.001293,-0.00002,0.00177
399,-0.000737,0.000461,-0.000937,-0.001047,0.004619,0.006237,-0.000549,0.000173,-0.000609,0.00047,0.000135,0.000969,0.000641,0.000597,0.002176
398.5,-0.000693,0.000956,-0.000406,-0.000199,0.005087,0.006141,-0.000344,0.00095,0.000431,0.000811,-0.000005,0.000398,0.001783,0.000114,0.001987
398,-0.000429,0.000656,0.000929,-0.001297,0.004071,0.004531,-0.000527,-0.000151,0.000179,0.000829,0.000134,0.000441,0.000923,0.001262,0.001992
397.5,0.000559,0.001061,-0.000074,-0.001203,0.003964,0.005775,0.000207,-0.000652,-0.000506,0.000494,0.000531,0.001143,0.001042,0.000259,0.002242
397,-0.000563,0.000804,0.000104,-0.001028,0.004412,0.00565,0.000333,-0.000129,-0.000421,0.000879,-0.001152,-0.000263,0.000217,0.000144,0.001094
396.5,-0.000002,0.001134,-0.000539,-0.001489,0.003451,0.006848,0.000463,-0.000272,-0.000217,0.000038,-0.000707,0.000719,0.000817,0.000109,0.001678
396,-0.000242,0.000967,-0.001027,-0.001322,0.00402,0.005121,0.000311,-0.000178,-0.000794,-0.000706,-0.000512,-0.000014,0.000064,0.000631,0.002428
395.5,-0.000735,0.000839,-0.000343,-0.000421,0.004749,0.006522,0.000236,0.000081,-0.000401,0.00003,0.000018,0.000257,0.00051,0.00019,0.001392
395,-0.000072,0.001495,0.000256,-0.001881,0.004536,0.006122,0.00064,-0.000033,-0.0006,0.000327,0.000358,0.001291,0.00112,-0.000497,0.001579
394.5,0.000138,0.000843,-0.000619,-0.001021,0.004374,0.006142,0.000526,-0.000525,-0.001314,-0.000342,-0.001077,0.001218,0.000874,0.000717,0.001972
394,0.000061,0.000717,-0.000734,-0.001344,0.004891,0.005861,-0.000351,0,-0.00035,0.000005,0.000132,0.001212,0.000941,-0.000904,0.001055
393.5,0.000161,0.000592,-0.000716,-0.001255,0.004049,0.006284,0.000117,-0.00035,-0.000809,0.000524,-0.000267,0.000883,0.001674,0.000345,0.001349
393,0.000165,0.001443,0.000208,-0.001347,0.004467,0.004714,0.000172,0.000779,-0.000525,0.000641,-0.000634,0.000666,0.000809,0.000077,0.002263
392.5,0.000291,0.001172,-0.000593,-0.001251,0.00375,0.006061,0.000556,0.000015,0.000078,-0.000255,-0.000172,0.000546,0.000486,-0.000331,0.001398
392,0.00018,0.001524,-0.000187,-0.000911,0.004168,0.006174,0.000928,0.000447,-0.000086,-0.000234,-0.000114,0.000906,0.001114,0.00006,0.000874
391.5,-0.000042,0.000445,-0.00057,-0.000826,0.004715,0.005284,-0.000455,0.000482,0.000789,-0.000564,-0.000966,0.000865,0.001297,0.000527,0.002089
391,0.000447,0.001064,-0.000364,-0.001175,0.004957,0.006223,0.000468,0.000314,-0.000282,-0.000323,-0.000075,0.000615,0.001155,-0.000128,0.001142
390.5,0.00063,0.001145,-0.000471,-0.001035,0.004432,0.006482,-0.000098,0.000016,-0.000215,0.001561,0.000141,0.000781,0.001123,0.000176,0.001759
390,-0.000038,0.001234,-0.00039,-0.000578,0.00442,0.006157,-0.000095,0.000001,-0.000814,0.000196,0.000236,0.000588,0.001155,0.000307,0.001785
389.5,0.001005,0.001505,-0.000407,-0.001042,0.003778,0.005644,-0.000173,0.000505,0.000426,-0.000139,0.000279,0.001291,0.001446,0.000468,0.002447
389,0.000252,0.000365,-0.000874,-0.000866,0.004321,0.006099,-0.000122,-0.000145,-0.00043,-0.000272,0.000073,0.000567,0.001213,-0.000248,0.001192
388.5,-0.000192,0.001506,-0.000396,-0.001541,0.004126,0.006162,0.000072,-0.000003,-0.001101,0.000271,-0.000207,0.001482,0.001256,0.000517,0.001663
388,-0.000376,0.001134,-0.000276,-0.001374,0.00485,0.005996,0.000069,-0.000232,-0.000562,0.000206,-0.000672,0.000617,0.000466,0.00062,0.001148
387.5,-0.000393,0.001033,-0.000571,-0.000616,0.005085,0.005759,0.000087,-0.000554,-0.000609,0.000929,0.000241,0.001444,0.001265,0.000311,0.001716
387,0.000315,0.000849,-0.000278,-0.000973,0.003811,0.005691,0.000037,-0.000413,-0.001365,0.00002,0.000284,0.000669,0.001153,0.001631,0.00225
386.5,-0.000084,0.00063,-0.001149,-0.000648,0.004284,0.005547,0.000782,0.000774,0.000079,-0.000455,-0.001009,0.001769,0.00094,-0.000257,0.002205
386,0.0003,0.000238,-0.000298,-0.000579,0.0055,0.006095,0.000069,0.00042,0.000834,0.000424,-0.000218,0.000512,-0.000003,-0.000534,0.001629
385.5,0.000233,0.000208,-0.000708,-0.000523,0.004123,0.007297,0.001512,0.000631,-0.000262,-0.00013,-0.00063,0.000738,0.000778,-0.001083,0.001034
385,-0.000078,0.001289,-0.000558,-0.000894,0.004544,0.0071,0.000998,0.000488,-0.000415,-0.00144,-0.000289,0.001394,0.002131,0.000585,0.002438
384.5,-0.000893,0.000437,-0.0007,-0.001048,0.004736,0.00649,0.000124,-0.000023,-0.000215,0.000359,0.000366,0.000806,0.001404,-0.000085,0.002225
384,-0.001376,0.000665,-0.000896,-0.000834,0.005633,0.005664,-0.000543,-0.000441,-0.000916,0.001024,0.000719,0.000504,-0.000079,0.000844,0.00185
383.5,-0.00006,0.000906,-0.000441,-0.000991,0.004555,0.00612,0.000125,-0.000275,-0.000332,-0.000433,-0.000489,0.000719,0.001353,0.000324,0.00111
383,-0.000896,0.001177,-0.001572,-0.00092,0.005017,0.00577,0.000355,0.000439,-0.000219,-0.000494,-0.000138,0.001466,0.001893,-0.000627,0.001039
382.5,0.000324,0.001172,0.000041,-0.000362,0.004754,0.006378,0.001032,-0.000268,-0.000707,0.000982,0.000432,0.002155,0.002026,0.000164,0.00231
382,-0.000554,0.000533,-0.000212,-0.00132,0.00461,0.005758,0.000991,-0.00055,-0.00125,0.000773,-0.000178,0.000791,0.000321,0.000106,0.001369
381.5,0.000586,0.001141,-0.000154,-0.001098,0.005244,0.007011,0.001237,0.000747,-0.00082,0.001113,0.000205,0.001313,0.000775,0.000894,0.002173
381,0.000196,0.001713,0.000606,-0.00113,0.005824,0.00631,0.000083,-0.000406,0.000602,0.000183,0.000104,0.001357,0.001221,0.000432,0.001994
380.5,-0.000051,0.001461,0.00011,-0.000901,0.004057,0.005361,0.000289,0.0002,0.000012,0.000835,0.000679,0.001435,0.001344,0.000202,0.001088
380,-0.000844,0.00042,-0.000683,-0.001247,0.004508,0.006475,0.000147,0.000597,-0.000068,0.000836,0.000736,0.001317,0.000707,0.000626,0.001854
379.5,0.00094,0.002071,-0.000765,-0.001835,0.005063,0.004784,-0.000778,0.000757,0.000087,0.000855,-0.000022,0.000922,0.001107,0.000698,0.002533
379,0.000311,0.001385,-0.000714,-0.001515,0.005864,0.00632,0.000451,0.000059,-0.000052,0.000408,-0.000233,0.00129,0.001488,0.00062,0.001286
378.5,0.000172,0.001176,-0.001104,-0.001003,0.005657,0.005419,-0.000405,-0.000134,-0.000802,-0.000171,-0.000335,0.000522,0.000204,0.000182,0.001828
378,-0.000098,0.000191,-0.000224,-0.000949,0.005519,0.006006,-0.000119,0.000316,0.000133,-0.000239,-0.000865,0.000962,0.001544,0.000739,0.002041
377.5,-0.001179,0.000701,-0.001196,-0.000223,0.006419,0.006286,0.000392,0.000141,0.000099,0.000552,0.000716,0.001364,0.001747,0.000772,0.002031
377,0.000034,0.000893,-0.001243,-0.000576,0.005579,0.006629,0.000175,-0.000261,-0.001098,0.000038,0.000642,0.001107,0.001254,0.000714,0.002457
376.5,0.000368,0.001162,-0.000455,-0.001113,0.005561,0.005551,0.000486,-0.000631,-0.000669,0.000113,0.000924,0.00047,0.000895,0.00048,0.001789
376,0.000128,0.001074,-0.000012,-0.00031,0.005878,0.006757,0.000162,0.00073,-0.000141,0.000603,-0.000927,0.000901,0.001022,0.000662,0.001756
375.5,-0.00014,0.001785,-0.000441,-0.000717,0.004504,0.006505,0.000433,0.000624,0.000421,-0.000525,-0.000658,0.000916,0.00142,0.001134,0.002366
375,-0.000834,0.000285,-0.001371,-0.00112,0.005609,0.006354,0.000934,-0.000224,0.000926,0.000292,0.000131,0.000316,-0.000249,-0.000158,0.000258
374.5,-0.000492,0.0006,-0.000224,0.000294,0.005646,0.006746,-0.000168,-0.000668,0.000136,0.000917,-0.000666,0.001681,0.001319,-0.000203,0.002487
374,-0.000601,0.001524,-0.000667,0.00022,0.005867,0.00718,0.000964,-0.00008,-0.000389,0.000125,-0.001063,0.001659,0.001024,0.000747,0.001591
373.5,0.001143,0.001361,-0.001137,-0.000048,0.005607,0.006785,-0.000013,0.000498,0.000537,0.000804,-0.00031,0.000791,0.000843,0.001694,0.003166
373,-0.000808,0.000799,-0.000467,0.000192,0.006287,0.007143,0.000005,0.001939,0.000931,0.000496,0.000492,0.001561,0.000745,0.000548,0.002894
372.5,0.001112,0.001456,0.000027,-0.001097,0.005097,0.005511,0.000835,0.000011,-0.000513,-0.000543,-0.001391,0.000908,0.000873,0.000146,0.002958
372,-0.000106,0.001709,-0.000182,-0.000729,0.005967,0.005748,0.0006,0.000779,0.000612,0.001224,0.000526,0.001435,0.001411,0.000146,0.00113
371.5,-0.000337,0.00212,-0.001275,-0.000012,0.005837,0.006335,0.000995,0.000155,0.000669,0.000173,-0.000371,0.0023,0.001337,-0.000651,0.001138
371,-0.000591,0.000549,-0.000346,-0.000641,0.005732,0.005777,0.000588,0.00018,-0.000086,-0.000825,-0.000079,0.000615,0.00149,0.000659,0.001832
370.5,-0.000084,0.000967,0.000181,-0.000908,0.006209,0.006881,0.00007,0.001323,0.000792,0.000253,-0.000354,0.001686,0.001756,0.00001,0.001689
370,0.000649,0.000903,-0.000981,-0.000502,0.006322,0.007805,0.001442,-0.000192,-0.001009,0.000032,0.000893,0.001235,0.000458,-0.000702,0.002092
369.5,-0.00001,0.001196,-0.000329,-0.00158,0.006022,0.007075,-0.000496,0.000631,0.000208,0.000943,-0.000415,0.001015,0.000567,0.000248,0.002331
369,0.000648,0.001358,-0.001267,-0.001081,0.006898,0.007151,0.000704,-0.000191,-0.000235,0.000636,-0.000181,0.001399,0.000327,0.001549,0.002852
368.5,-0.000276,0.001049,-0.000716,-0.000349,0.00701,0.006189,0.000884,0.001281,0.001581,0.001144,0.000953,0.002458,0.002002,0.000925,0.002826
368,-0.000124,0.000804,-0.000423,-0.002811,0.005763,0.006617,0.000377,0.000512,-0.000229,0.000463,-0.000329,0.001027,0.000186,0.00054,0.001541
367.5,-0.000381,0.001112,-0.00106,-0.000716,0.006693,0.006783,0.000842,-0.001211,-0.001704,0.000904,0.000709,0.000815,0.00046,0.000829,0.001996
367,0.000133,0.00096,0.000085,-0.000472,0.006193,0.006652,0.000678,-0.00119,-0.00196,-0.000626,-0.000127,0.001562,0.000682,0.001962,0.003526
366.5,0.000889,0.001964,-0.000792,-0.000491,0.007024,0.006182,-0.00002,0.000166,0.000142,0.001291,0.000431,0.000675,0.000256,-0.000173,0.00158
366,-0.000367,0.001253,0.000006,-0.000531,0.006357,0.006716,0.000616,0.001484,0.000583,0.000006,0.000089,0.001218,0.000259,0.00013,0.001221
365.5,0.000788,0.002017,-0.001035,-0.001248,0.006682,0.00599,-0.000821,-0.000787,-0.000502,0.000406,0.000275,0.001484,0.001417,0.000375,0.001826
365,0.000576,0.001382,-0.000945,0.000343,0.007284,0.00633,0.000108,-0.000037,-0.000476,0.000136,-0.000025,0.00192,0.00102,0.000454,0.001731
364.5,0.000345,0.001569,-0.000885,-0.000586,0.00711,0.006398,0.000715,0.000515,-0.000413,0,-0.00132,0.00087,0.000565,-0.000203,0.000932
364,0.000405,0.001588,0.000301,-0.000487,0.006535,0.006212,-0.000395,0.000426,-0.000492,0.000029,0.000393,0.001712,0.000849,0.000712,0.002866
363.5,0.000525,0.002012,-0.001073,-0.000495,0.006041,0.00771,0.000545,0.00055,0.000253,-0.000263,-0.000437,0.000819,0.000496,0.001196,0.002217
363,0.000682,0.002186,-0.001218,-0.000655,0.006877,0.007886,-0.00001,0.00109,-0.000179,-0.000263,-0.000522,0.001836,0.001473,0.001213,0.002359
362.5,0.000495,0.002169,-0.000575,0.000085,0.007386,0.007654,0.000082,0.000256,-0.000646,0.000744,0.000847,0.001273,0.000749,0.00052,0.00202
362,0.000023,0.001818,-0.000557,-0.000947,0.007165,0.006797,0.000461,0.000085,0.000362,0.000827,0.00085,0.001476,0.000982,0.000624,0.002192
361.5,-0.000433,0.001325,-0.00028,-0.001286,0.005833,0.006877,0.000042,-0.000385,-0.00053,0.000188,0.000107,0.001566,0.000732,0.001163,0.002745
361,-0.000327,0.001787,0.000017,-0.000844,0.006951,0.007068,0.000341,0.000328,-0.000067,0.000127,-0.000144,0.001891,0.001222,0.0013,0.002835
360.5,0.000693,0.001153,0.00033,-0.000641,0.006571,0.007778,0.000574,-0.001306,-0.002014,0.000254,0.00001,0.002246,0.000805,0.000701,0.002288
360,0.000164,0.002047,0.000358,-0.000727,0.006795,0.007554,0.00063,0.000809,0.000445,-0.000581,-0.000395,0.002307,0.001322,0.000563,0.001613
359.5,0.000498,0.002036,-0.000561,-0.001102,0.007202,0.007815,0.00144,-0.000544,-0.000057,0.000705,0.000164,0.00113,0.001088,0.000275,0.002035
359,0.000559,0.001637,-0.000418,-0.001041,0.006398,0.006988,0.000782,0.000871,0.000419,0.000938,0.000397,0.002107,0.001509,0.001663,0.00281
358.5,-0.000148,0.001681,-0.000152,-0.000484,0.007081,0.007123,0.000583,-0.000015,-0.000758,0.00063,-0.000353,0.002331,0.002097,0.000808,0.002173
358,0.000095,0.001664,-0.000498,0.0006,0.007098,0.007348,0.00078,-0.000027,-0.000471,-0.000006,0.000031,0.00226,0.002164,0.000658,0.001976
357.5,0.000696,0.001131,-0.000388,-0.000644,0.006924,0.007049,-0.000358,0.001173,-0.000181,0.000445,-0.000574,0.001794,0.001491,0.00051,0.001798
357,-0.000318,0.00079,0.000919,-0.001538,0.007317,0.008151,0.000397,0.000299,-0.000201,0.00113,-0.000572,0.00132,0.000689,0.000127,0.001763
356.5,0.000512,0.002305,-0.001403,-0.000862,0.006394,0.007271,0.000002,0.000597,-0.000094,0.000997,-0.000427,0.002323,0.001953,0.001361,0.001928
356,-0.00035,0.001199,-0.000878,-0.00041,0.007493,0.006135,-0.000417,0.001208,0.000391,0.001342,0.000816,0.001566,0.001172,0.00112,0.001339
355.5,-0.000038,0.001537,-0.001386,0.000251,0.008824,0.007095,0.000995,-0.000018,0.000097,-0.000165,0.000081,0.001948,0.001222,-0.000473,0.000213
355,0.000287,0.001988,-0.000511,-0.000675,0.008218,0.007288,0.000295,-0.000357,-0.000823,-0.000034,-0.000179,0.002136,0.001643,0.000306,0.00266
354.5,0.000273,0.001533,-0.000281,-0.000942,0.007315,0.006985,-0.000132,0.000272,-0.000533,0.001113,0.001069,0.002441,0.001738,-0.000001,0.001965
354,0.001107,0.002307,0.000242,-0.000467,0.00847,0.007191,0.000202,0.000126,-0.001218,0.001442,0.000725,0.001685,0.001667,0.000277,0.001326
353.5,-0.000281,0.001847,-0.000787,0.00024,0.007457,0.007153,0.00062,0.000748,0.000321,-0.000101,-0.001129,0.002271,0.000094,0.001485,0.001743
353,0.000467,0.001782,-0.000061,-0.000361,0.007334,0.006661,0.000235,0.000666,0.000411,0.000124,-0.000139,0.001492,0.001398,-0.000012,0.001894
352.5,0.0003,0.00171,-0.000121,-0.000027,0.008575,0.006938,0.000527,-0.000704,-0.000645,0.000744,0.000726,0.003454,0.001974,0.000579,0.002188
352,0.000673,0.002841,0.000195,-0.000966,0.007478,0.007758,0.000745,0.000142,-0.000024,-0.00012,0.000838,0.001725,0.001572,0.000506,0.00173
351.5,-0.000332,0.001515,-0.000336,0.00052,0.008929,0.007495,0.001019,0.000205,0.000462,-0.00001,-0.000383,0.001558,0.000746,0.000355,0.001089
351,-0.000354,0.001632,-0.000685,-0.000663,0.007868,0.007806,0.000558,0.000826,0.000496,-0.000069,-0.000762,0.001754,0.00139,0.00182,0.00258
350.5,0.000568,0.001214,0.000053,0.000373,0.009036,0.008169,0.001662,0.000655,-0.000281,0.000391,-0.000607,0.002061,0.00181,0.000608,0.001685
350,-0.000808,0.001199,-0.000737,0.000093,0.008507,0.007151,-0.000374,-0.00079,-0.000965,0.001794,-0.00027,0.003099,0.001485,0.001259,0.001778
349.5,-0.00022,0.002211,-0.000177,-0.000028,0.009024,0.008553,0.001674,0.001392,-0.000097,0.000301,-0.000726,0.001624,0.001193,0.001272,0.001837
349,-0.000004,0.001952,-0.000001,-0.00078,0.007729,0.007955,0.000603,0.000667,0.000989,-0.000518,-0.000796,0.002827,0.001664,0.000659,0.002142
348.5,0.000034,0.001577,-0.001404,-0.00146,0.00788,0.007482,0.000202,0.001264,0.000152,0.00071,0.000354,0.003581,0.002815,0.000973,0.003441
348,-0.000356,0.001788,-0.000813,-0.001256,0.008053,0.008017,0.000517,0.000516,0.00006,0.00124,0.000187,0.001989,0.001098,-0.000165,0.001095
347.5,0.000106,0.002277,-0.000204,0.000215,0.009124,0.006824,0.000587,0.000588,0.000504,0.000683,0.000002,0.002261,0.001692,0.001599,0.002613
347,-0.000042,0.001446,-0.000151,0.000871,0.008942,0.00695,0.000179,-0.000165,0.0004,0.000072,-0.000328,0.001972,0.001432,0.000597,0.001705
346.5,-0.000484,0.001349,-0.00007,0.000009,0.009723,0.008003,0.000922,0.000573,-0.000493,-0.000195,-0.000867,0.002232,0.001571,0.001344,0.002529
346,-0.000974,0.001333,0.000005,-0.000342,0.008657,0.007988,0.000419,0.000244,-0.000176,0.000885,-0.000097,0.002879,0.001183,0.000932,0.003464
345.5,-0.001063,0.001381,-0.000957,-0.000015,0.008684,0.007543,0.000533,-0.00012,0.000371,0.00043,0.000121,0.002384,0.002119,0.000758,0.001799
345,-0.000159,0.001987,0.000546,-0.000943,0.008743,0.007857,0.001098,0.000314,0.000304,0.001338,0.00051,0.001882,0.000941,0.001766,0.002371
344.5,-0.000511,0.001705,-0.000406,-0.000904,0.007652,0.007498,-0.000372,-0.000033,-0.000753,0.001313,-0.000258,0.003086,0.002716,0.001835,0.002779
344,-0.000253,0.001104,-0.000175,-0.000899,0.008557,0.007331,0.001015,0.000796,-0.000583,0.001927,0.001999,0.001778,0.002286,0.001632,0.00271
343.5,0.000279,0.001194,-0.000907,-0.001074,0.009404,0.00751,0.000574,0.001608,0.000692,0.000425,0.000404,0.003172,0.001285,0.001515,0.001726
343,-0.000751,0.001107,-0.000463,-0.000679,0.008192,0.007307,0.00099,0.000417,0.000154,0.000348,0.000769,0.002452,0.001706,0.001153,0.00219
342.5,0.000205,0.002355,-0.000032,-0.000628,0.008095,0.007239,0.000384,0.001171,0.000645,0.00146,0.00067,0.003382,0.002628,0.001238,0.002767
342,-0.001086,0.000116,-0.00057,0.000297,0.009174,0.008075,0.001048,0.000418,0.000382,0.001587,0.00051,0.002355,0.001416,0.001356,0.003492
341.5,0.000195,0.002075,-0.000929,-0.000221,0.009117,0.008972,0.001014,0.000509,-0.000128,0.000807,-0.000201,0.002325,0.001608,0.000806,0.002418
341,-0.000137,0.000911,-0.00113,-0.000907,0.008526,0.008176,0.00141,-0.000735,-0.000881,-0.000275,-0.00049,0.003154,0.001575,0.001925,0.003958
340.5,-0.000584,0.001545,-0.001132,-0.0012,0.008152,0.007987,0.001923,0.000546,0.000055,0.000865,0.000306,0.002253,0.001778,0.00056,0.002207
340,-0.000647,0.000384,-0.00014,0.000729,0.009861,0.007619,0.001005,-0.00036,-0.000635,-0.000053,-0.000578,0.002866,0.00265,0.000744,0.002365
339.5,-0.000332,0.001729,-0.00063,-0.000854,0.009199,0.007263,0.000035,-0.000179,-0.000273,0.00003,0.000292,0.002511,0.00113,0.000636,0.002144
339,-0.000034,0.002221,-0.000315,0.000003,0.009762,0.00759,0.00077,0.000571,0.000351,0.001591,0.000476,0.00156,0.001454,0.001467,0.003963
338.5,-0.000494,0.001367,-0.001055,0.000235,0.009294,0.008173,0.000592,0.000541,0.000299,0.001186,0.001058,0.003266,0.001648,0.001658,0.003507
338,0.000017,0.001488,-0.00032,-0.001484,0.008352,0.007542,0.000249,0.0007,0.0007,0.001231,0.000545,0.002486,0.002048,0.000907,0.002775
337.5,0.000608,0.003068,0.000189,-0.000475,0.009518,0.008886,0.002016,0.001508,0.000738,0.001361,0.000588,0.002151,0.001597,0.001186,0.002376
337,0.00038,0.003015,0.000341,-0.000234,0.009267,0.007183,-0.000122,0.000681,-0.000102,0.000309,-0.000358,0.003329,0.002752,0.001205,0.00292
336.5,0.000186,0.002166,0.000196,-0.00052,0.00909,0.008371,0.001561,0.001511,0.001088,0.000599,0.000606,0.002591,0.00117,0.0009,0.002281
336,-0.000354,0.002017,-0.000213,-0.000477,0.009329,0.008297,0.001748,0.000653,0.000683,-0.000667,-0.00093,0.001269,0.000578,0.00133,0.002637
335.5,-0.000082,0.002558,-0.000082,0.000097,0.009416,0.009313,0.001417,0.000201,-0.000407,0.00045,0.000001,0.001749,0.001611,0.001373,0.001667
335,0.000557,0.001787,0.000394,-0.000721,0.008792,0.007379,0.000968,0.000893,0.000329,0.000049,0.00026,0.002486,0.001725,0.000245,0.001719
334.5,0.000561,0.003077,-0.000162,-0.000321,0.008921,0.007913,0.000279,0.000233,0.000342,0.000261,0.000938,0.004071,0.001919,0.001998,0.002713
334,0.000168,0.001782,-0.000574,-0.000633,0.010388,0.007698,0.000818,-0.00051,-0.001301,0.000822,0.000174,0.00181,0.000936,0.000683,0.002131
333.5,-0.000325,0.001476,0.000418,-0.000582,0.009384,0.008154,0.000326,0.00046,0.000194,0.000646,0.000599,0.002251,0.002157,0.001262,0.001859
333,-0.000237,0.00193,-0.000402,-0.000268,0.009726,0.007666,0.000706,0.000867,0.00029,-0.000109,-0.00031,0.002389,0.002184,0.002685,0.00366
332.5,-0.000701,0.002002,-0.000009,0.000206,0.009846,0.00759,0.000271,0.001029,0.000378,0.000592,0.000225,0.002032,0.001818,0.00228,0.003757
332,-0.000305,0.002526,-0.000205,0.000518,0.008622,0.008268,-0.000338,0.000131,0.00061,0.001014,0.0004,0.002379,0.001879,0.001414,0.002628
331.5,-0.000331,0.001461,0.000175,0.000268,0.009366,0.008868,0.000754,-0.000126,-0.00099,0.000058,-0.001178,0.002497,0.00177,0.001139,0.002135
331,-0.000201,0.001242,-0.000824,-0.000325,0.008737,0.008001,0.000854,0.000188,-0.000722,-0.000235,0.000792,0.002003,0.000595,0.001251,0.002287
330.5,-0.000893,0.000504,-0.001199,0.000402,0.009039,0.009009,0.001364,-0.000604,-0.001247,0.000003,-0.00002,0.002663,0.001886,0.000648,0.001485
330,0.000788,0.002753,0.0006,-0.001372,0.008092,0.007804,0.001837,0.00062,0.001065,0.000098,-0.000207,0.001642,0.001409,0.001985,0.003795
329.5,-0.00004,0.001987,0.000498,-0.00044,0.008924,0.008599,0.001477,0.001066,0.00061,0.001124,0.000733,0.00239,0.002426,0.002337,0.003392
329,-0.000552,0.002069,-0.000627,-0.000724,0.009425,0.008022,0.001367,-0.000358,-0.000162,0.00048,-0.000391,0.002491,0.001907,0.001308,0.003132
328.5,-0.000148,0.001429,-0.000604,-0.000722,0.009053,0.007049,0.000111,-0.000159,-0.000232,0.000586,-0.00006,0.002229,0.001964,0.001294,0.002431
328,-0.000584,0.002356,-0.000846,-0.000187,0.009362,0.008371,0.001386,0.000258,-0.000803,0.000516,0.000694,0.002384,0.001801,0.001197,0.002357
327.5,-0.000364,0.001865,-0.000024,-0.000315,0.009119,0.008217,0.001203,-0.00004,-0.000452,0.000831,0.000424,0.001222,0.00083,0.001788,0.002661
327,-0.000251,0.002047,-0.000641,0.001076,0.009924,0.007611,0.001086,0.000442,-0.000526,0.000965,-0.000255,0.002217,0.001839,0.001378,0.002236
326.5,-0.000257,0.00149,0.000259,0.000716,0.00917,0.008048,0.000488,0.001087,0.000161,0.001151,0.000491,0.002476,0.002641,0.000985,0.00209
326,0.000045,0.001609,0.00124,-0.000311,0.009106,0.009142,0.000727,0.000337,0.000664,0.001369,0.000582,0.002935,0.002012,0.000742,0.002623
325.5,0.000099,0.002238,-0.000218,0.000659,0.009638,0.008155,0.00132,0.001296,0.000909,0.001025,-0.000282,0.002384,0.001381,0.001697,0.003227
325,-0.000937,0.001494,-0.000697,-0.000247,0.009133,0.009246,0.0012,0.000968,0.000748,0.000863,0.000916,0.001588,0.001136,0.001979,0.003514
324.5,-0.000515,0.001793,-0.000181,-0.000327,0.00947,0.008312,0.001825,0.000164,0.000652,0.000718,0.00034,0.002842,0.002525,0.000826,0.002503
324,0.000409,0.001587,0.00016,0.000193,0.009464,0.008398,0.000916,0.000968,0.000685,0.000972,0.000446,0.003401,0.002084,0.001278,0.002331
323.5,0.000144,0.001831,0.000307,0.000152,0.009586,0.009594,0.001846,0.001891,0.001333,0.000739,-0.000016,0.002188,0.001808,0.002723,0.00339
323,0.000516,0.002384,-0.000017,-0.000938,0.007855,0.00899,0.001778,0.001063,0.000568,0.000679,0.000156,0.004021,0.002243,0.001993,0.003196
322.5,0.000641,0.002304,-0.000543,0.000118,0.008619,0.0089,0.001774,0.000643,0.000602,0.001254,0.000841,0.002665,0.00166,0.001485,0.00271
322,-0.00078,0.00151,-0.000151,0.000878,0.009804,0.008797,0.001315,0.001803,0.000507,0.000507,-0.000123,0.002637,0.002388,0.001673,0.002902
321.5,-0.000105,0.002137,0.000104,-0.000072,0.009483,0.009014,0.001176,-0.000259,-0.00018,0.000295,-0.000101,0.002536,0.001079,0.001628,0.003208
321,-0.000452,0.002012,-0.000206,-0.000444,0.00869,0.008423,0.0018,0.000619,0.000454,0.000043,-0.000249,0.002641,0.001872,0.001325,0.002166
320.5,0.000271,0.001843,0.000038,-0.000952,0.009871,0.007716,0.000581,0.000827,0.000596,0.000962,0.00061,0.002528,0.001745,0.000763,0.002681
320,0.000129,0.002109,0.000598,-0.0011,0.008991,0.008975,0.001941,0.001128,0.001037,0.001,0.0006,0.003662,0.001997,0.002324,0.003541
319.5,0.000419,0.002444,-0.000439,0.000031,0.009772,0.00819,0.001222,0.001132,0.000965,0.00153,0.000538,0.002735,0.002623,-0.000026,0.001964
319,-0.000091,0.002763,0.000251,0.000499,0.009443,0.008353,0.001584,0.000458,0.000003,0.000305,0.000398,0.003257,0.002469,0.001362,0.003552
318.5,0.000175,0.001823,0.00038,-0.00035,0.009325,0.008445,0.00077,-0.000814,-0.000347,0.001506,0.001094,0.00313,0.002693,0.001273,0.002921
318,-0.000073,0.002499,0.000386,0.000712,0.010634,0.008492,0.001075,0.001429,0.001276,0.000231,0.000013,0.00213,0.002563,0.000714,0.002044
317.5,-0.000481,0.00279,-0.000326,-0.000002,0.010481,0.010148,0.002068,0.001402,0.000773,0.000838,0.000625,0.002659,0.001801,0.001927,0.00275
317,-0.000137,0.0025,-0.00029,-0.000488,0.009991,0.008246,0.00123,0.001504,0.00134,0.000447,-0.000022,0.003108,0.002325,0.001242,0.002688
316.5,0.000641,0.003171,-0.000247,0.000357,0.009277,0.008024,0.000574,0.000883,0.001005,0.000598,0.000586,0.003329,0.002328,0.000836,0.002717
316,0.000892,0.002849,0.00109,0.000039,0.010508,0.007919,0.000671,0.001686,0.001419,0.001127,0.000318,0.002944,0.002165,0.002578,0.003812
315.5,0.000533,0.002996,0.000024,-0.00092,0.009809,0.009018,0.001065,0.001885,0.000651,0.000754,0.000462,0.003233,0.002325,0.002517,0.003359
315,-0.000281,0.001854,-0.00123,-0.001064,0.008663,0.00888,0.000967,0.000894,0.0003,0.000981,-0.00049,0.0023,0.002535,0.001008,0.002282
314.5,-0.000267,0.002123,-0.000085,-0.000018,0.01081,0.009109,0.002288,0.00135,0.00044,0.001091,0.000205,0.002628,0.002032,0.001942,0.002543
314,-0.00014,0.001937,0.000293,0.000234,0.010216,0.009139,0.001203,0.00097,0.001261,0.000285,-0.000092,0.002243,0.001984,0.001956,0.003412
313.5,-0.00005,0.002658,0.000247,0.000895,0.010639,0.008853,0.001869,0.000814,0.000532,0.000626,0.000016,0.00368,0.002585,0.00276,0.003139
313,0.000579,0.003444,0.000221,0.000189,0.010991,0.009427,0.001349,0.001248,0.00078,0.001304,0.00091,0.00297,0.002329,0.001747,0.003625
312.5,0.00062,0.002937,-0.00083,-0.000386,0.010316,0.009346,0.001421,0.001186,0.001453,0.001164,0.000505,0.003674,0.003352,0.001502,0.003229
312,0.000019,0.003894,-0.000845,0.000361,0.010057,0.009207,0.001779,0.000341,0.000785,0.000472,-0.000385,0.002703,0.002362,0.000975,0.002743
311.5,-0.000076,0.003768,-0.000224,-0.000343,0.010108,0.008662,0.001503,0.00144,0.000857,0.001146,0.000159,0.002234,0.001372,0.001168,0.002821
311,-0.000213,0.002989,-0.000065,-0.000032,0.010529,0.009446,0.002429,0.001349,0.001179,0.001095,0.000209,0.002222,0.000855,0.00194,0.003403
310.5,-0.000333,0.002362,0.000693,-0.000575,0.011425,0.009419,0.002053,0.001659,0.000855,0.000665,0.00025,0.002751,0.001621,0.001267,0.002375
310,-0.000845,0.002372,-0.000309,-0.00039,0.009431,0.009059,0.001486,0.000208,0.000163,0.001285,0.001036,0.002952,0.002576,0.001851,0.003753
309.5,-0.00062,0.003169,-0.000164,-0.000129,0.010238,0.008636,0.001483,0.001495,0.001037,0.000965,0.000748,0.003087,0.002218,0.001725,0.002802
309,-0.000692,0.002442,0.000066,-0.000228,0.010353,0.009219,0.002066,0.00089,-0.000796,0.000787,0.000878,0.004041,0.004211,0.001779,0.003827
308.5,-0.00088,0.002138,-0.000681,-0.001999,0.009263,0.00903,0.001709,0.001082,0.000794,0.001274,0.000654,0.003201,0.002673,0.001228,0.003025
308,-0.00009,0.002262,-0.000045,0.000184,0.010262,0.008371,0.00159,0.000389,0.000483,0.000403,0.000331,0.003309,0.002605,0.002052,0.002862
307.5,-0.000177,0.001886,0.000227,0.000184,0.010932,0.008558,0.001566,0.002221,0.001779,0.001186,-0.000178,0.002944,0.002502,0.001798,0.003976
307,-0.000448,0.002516,0.000285,-0.000284,0.010211,0.009443,0.002307,0.000233,-0.000228,0.000853,0.000785,0.0043,0.002922,0.001451,0.002515
306.5,0.000061,0.001825,0.000127,0.000122,0.010903,0.009292,0.001613,0.001646,0.001342,0.0014,0.000681,0.003147,0.00211,0.002521,0.004876
306,-0.000293,0.001982,-0.000464,-0.000012,0.011633,0.009073,0.001049,0.000527,0.000783,0.001424,0.000891,0.003231,0.003975,0.002422,0.003569
305.5,0.000259,0.002788,0.000277,-0.000108,0.011352,0.009634,0.001646,0.001538,0.000748,0.000177,0.00042,0.003221,0.002962,0.001713,0.003285
305,0.000502,0.003122,-0.000249,0.000356,0.01095,0.009788,0.00215,0.001222,0.000618,0.001128,0.000658,0.00376,0.003316,0.001817,0.002716
304.5,0.000065,0.003096,0.000188,-0.000453,0.009943,0.00808,0.002014,0.001735,0.000994,0.000561,0.000874,0.00293,0.002637,0.001992,0.003792
304,0.000048,0.003416,0.000244,0.000975,0.012116,0.00848,0.00151,0.000675,0.000155,0.001247,0.000591,0.004111,0.002483,0.002489,0.003877
303.5,-0.000277,0.002833,0.000468,0.000454,0.01041,0.009321,0.001511,0.000363,0.000417,0.001347,0.001124,0.003371,0.003069,0.001609,0.003813
303,-0.000472,0.002552,0.000705,0.000558,0.009946,0.00877,0.001475,0.001156,0.001119,0.002519,0.000694,0.003313,0.002749,0.001787,0.003489
302.5,-0.000006,0.003123,-0.000092,-0.000211,0.010157,0.008222,0.001031,0.001086,0.001071,0.000552,0.000978,0.003185,0.002751,0.001736,0.003263
302,0.000572,0.002911,-0.000767,-0.000229,0.011123,0.009393,0.002351,0.002264,0.001664,0.000868,0.000655,0.003595,0.002987,0.002166,0.003502
301.5,-0.000281,0.002624,-0.000476,0.000378,0.011084,0.009312,0.001848,0.001615,0.001013,0.001611,0.001745,0.003696,0.003481,0.002529,0.004134
301,-0.0006,0.002271,0.000306,0.000635,0.01178,0.010104,0.002103,0.000734,0.00012,0.000297,0.000859,0.003393,0.00297,0.004055,0.004656
300.5,-0.000485,0.002307,0.000399,0.000783,0.011579,0.009898,0.002162,0.000338,0.000397,0.000794,0.000749,0.003554,0.002629,0.001609,0.002914
300,0.000623,0.003264,0.000783,0.000447,0.010799,0.009751,0.002575,0.002299,0.002135,0.001625,0.001412,0.003478,0.003077,0.003059,0.00373
299.5,-0.000543,0.002894,0.000566,0.001017,0.011828,0.010849,0.002209,0.001442,0.001152,0.000492,0.001089,0.003367,0.002721,0.002192,0.003675
299,0.000093,0.003514,0.000788,0.000081,0.01162,0.009859,0.001941,0.001317,0.001496,0.000445,0.001006,0.003807,0.002978,0.00274,0.004619
298.5,-0.000874,0.002925,0.001512,0.000762,0.012752,0.009494,0.002628,0.000862,0.00076,0.001914,0.000689,0.005004,0.003496,0.003001,0.004239
298,0.000222,0.003717,0.000194,0.000418,0.013106,0.010794,0.002567,0.000599,-0.000006,0.000745,0.001083,0.003315,0.002572,0.003357,0.004031
297.5,-0.000635,0.002752,0.000005,0.000888,0.012246,0.010339,0.001247,0.001368,0.00057,0.000368,0.00026,0.003938,0.002496,0.002957,0.004465
297,-0.00058,0.003403,0.000676,0.001501,0.013295,0.009406,0.002092,0.001001,0.000732,0.001402,0.000256,0.004026,0.00297,0.002136,0.00359
296.5,-0.0002,0.003277,0.00028,0.000926,0.012612,0.009689,0.001847,0.003248,0.002405,0.001906,0.001322,0.00369,0.002963,0.002767,0.004842
296,-0.000195,0.00296,0.000968,0.001354,0.013039,0.009893,0.001315,0.001347,0.001363,0.001827,0.00144,0.003295,0.003235,0.001648,0.002867
295.5,-0.000294,0.00272,0.000018,0.001623,0.014091,0.008947,0.002587,0.00148,0.000599,0.001458,0.001241,0.004457,0.00366,0.002313,0.003404
295,0.000106,0.003878,-0.000159,0.001664,0.013291,0.010715,0.002661,0.002812,0.002269,0.00075,0.000759,0.003197,0.003126,0.00206,0.003996
294.5,-0.000732,0.002323,0.000538,0.000788,0.01264,0.009759,0.001779,0.001441,0.000692,-0.00048,-0.000851,0.004682,0.003485,0.002873,0.00421
294,-0.000001,0.003363,0.000591,0.002021,0.012861,0.010717,0.002493,0.001737,0.000884,0.001067,0.000753,0.004386,0.002965,0.003231,0.004243
293.5,0.001264,0.003981,0.000594,0.000352,0.013028,0.010684,0.002254,0.00142,0.000924,0.001592,0.001406,0.00407,0.003554,0.001638,0.00335
293,-0.000449,0.004097,0.001661,0.001057,0.013281,0.01104,0.002759,0.002066,0.0021,0.001607,0.001787,0.00488,0.002874,0.002719,0.004081
292.5,-0.000091,0.003582,-0.000576,0.000538,0.012923,0.010305,0.002288,0.0018,0.000458,0.00086,0.001704,0.005364,0.004334,0.00276,0.004101
292,-0.000542,0.004366,0.000272,0.00069,0.013557,0.010932,0.003424,0.001738,0.002854,0.001821,-0.000044,0.005541,0.003717,0.001973,0.004105
291.5,0.00048,0.004351,0.00107,0.000406,0.014076,0.011534,0.003488,0.002091,0.001294,0.000588,0.001573,0.005961,0.005375,0.001605,0.003413
291,-0.000328,0.002892,0.000455,0.001091,0.013612,0.011257,0.003593,0.001546,0.000053,0.00027,0.000977,0.004531,0.003286,0.002629,0.005007
290.5,-0.000355,0.003693,0.000422,0.001183,0.014285,0.011087,0.002957,0.001974,0.001784,0.00075,0.001609,0.004537,0.003564,0.002163,0.004328
290,-0.000444,0.003902,0.000151,0.000664,0.014237,0.009642,0.002978,0.001715,0.001658,0.001677,0.001546,0.004709,0.003618,0.002713,0.005001
289.5,-0.000304,0.003266,0.000289,0.000797,0.014288,0.010478,0.003042,0.001705,0.001456,0.002528,0.001571,0.005275,0.003888,0.003008,0.00512
289,-0.000905,0.004176,0.000674,0.001032,0.015165,0.010779,0.002212,0.00235,0.002074,0.001782,0.001879,0.004854,0.004438,0.001599,0.005158
288.5,-0.00006,0.004994,0.000945,0.001455,0.014786,0.01079,0.003076,0.003243,0.003146,0.001836,0.001738,0.004579,0.003511,0.003319,0.005516
288,-0.001206,0.004333,-0.00092,0.001133,0.015345,0.009849,0.001514,0.002276,0.002134,0.001364,0.000569,0.00558,0.004191,0.004279,0.005567
287.5,-0.00014,0.004527,0.000598,0.001092,0.01527,0.012198,0.003431,0.001904,0.001675,0.000765,0.00164,0.006005,0.003568,0.003124,0.006164
287,0.000435,0.00414,0.000696,0.000463,0.016122,0.011167,0.002517,0.00196,0.001817,0.002053,0.002253,0.005705,0.00401,0.003104,0.005755
286.5,0.000556,0.005267,0.000186,0.002163,0.016018,0.010488,0.004063,0.002543,0.002171,0.002635,0.000668,0.006021,0.004927,0.003232,0.005545
286,0.000094,0.004943,-0.000647,0.001758,0.016074,0.011102,0.0032,0.002822,0.00196,0.001873,0.001716,0.004662,0.002767,0.002978,0.005267
285.5,0.000048,0.005147,0.00099,0.001935,0.016099,0.012745,0.004388,0.002607,0.001389,0.002323,0.001856,0.005445,0.004361,0.003493,0.005537
285,-0.0003,0.004994,0.000739,0.002501,0.016234,0.011741,0.003201,0.002101,0.00264,0.002308,0.003516,0.006767,0.004636,0.003938,0.006089
284.5,-0.000263,0.005067,0.000683,0.00255,0.017434,0.011184,0.003167,0.003315,0.002738,0.003436,0.001436,0.006628,0.004996,0.002349,0.005686
284,0.000446,0.005007,0.000581,0.001917,0.018094,0.011825,0.003198,0.001799,0.001843,0.002148,0.002452,0.007227,0.005745,0.002001,0.004607
283.5,0.000683,0.005441,0.001294,0.002211,0.01737,0.013351,0.003533,0.002196,0.001275,0.001751,0.001455,0.007067,0.004867,0.001898,0.005252
283,0.000327,0.00586,0.001453,0.002541,0.017899,0.012606,0.00636,0.004275,0.003679,0.001089,0.00102,0.007384,0.005585,0.003587,0.006652
282.5,-0.000615,0.004936,0.001848,0.001651,0.017947,0.011952,0.003556,0.002302,0.001993,0.002194,0.002175,0.006973,0.004888,0.004035,0.006162
282,-0.000408,0.00543,0.00156,0.002252,0.017876,0.012273,0.003458,0.003759,0.003031,0.002633,0.003374,0.007419,0.004744,0.004044,0.006648
281.5,-0.000377,0.004966,0.001492,0.001097,0.017985,0.011907,0.004157,0.003528,0.003599,0.002682,0.00302,0.006376,0.004717,0.003351,0.006741
281,-0.000332,0.006064,0.00162,0.001647,0.017401,0.012697,0.004382,0.004244,0.00402,0.003092,0.002945,0.007471,0.005027,0.003786,0.006688
280.5,-0.000477,0.004643,0.001633,0.002361,0.017593,0.013333,0.00484,0.004841,0.003924,0.001558,0.002325,0.007394,0.005241,0.003736,0.006935
280,0.000821,0.006053,0.001732,0.003509,0.017653,0.012942,0.003796,0.003711,0.003511,0.002963,0.002779,0.007675,0.006229,0.003772,0.006909
279.5,-0.000308,0.005626,0.00201,0.003246,0.017839,0.012626,0.003784,0.003348,0.003682,0.003468,0.002819,0.006638,0.004078,0.003998,0.007281
279,0.00054,0.005529,0.002041,0.001783,0.016335,0.012345,0.004675,0.003449,0.004005,0.001932,0.002534,0.007006,0.003802,0.003599,0.007087
278.5,-0.001515,0.004884,0.001231,0.003704,0.019264,0.013828,0.005147,0.004192,0.004378,0.002721,0.002025,0.008104,0.006541,0.002315,0.005586
278,0.000339,0.006994,0.000436,0.003842,0.018329,0.015194,0.006385,0.003419,0.002685,0.004357,0.003339,0.007129,0.006221,0.004237,0.007736
277.5,-0.000246,0.005981,0.001533,0.003042,0.019629,0.013054,0.005212,0.004205,0.003922,0.003032,0.002397,0.007613,0.005659,0.003829,0.00662
277,0.000101,0.006219,0.000836,0.002459,0.017326,0.01242,0.005972,0.002903,0.00288,0.002447,0.002934,0.008499,0.005744,0.003778,0.007152
276.5,-0.000012,0.007072,0.001095,0.002513,0.01885,0.013425,0.00541,0.003538,0.002732,0.00319,0.002552,0.009506,0.006457,0.004416,0.008227
276,0.000057,0.007718,0.001937,0.003397,0.018848,0.013723,0.00494,0.003843,0.003752,0.002842,0.002478,0.006692,0.005589,0.004423,0.007524
275.5,-0.000951,0.005738,0.002373,0.004778,0.020007,0.013616,0.004467,0.005323,0.004995,0.002445,0.002557,0.00813,0.006274,0.004203,0.006937
275,-0.000548,0.005794,0.001655,0.004737,0.019474,0.01208,0.003854,0.003809,0.003183,0.00399,0.004187,0.008011,0.006109,0.004312,0.007466
274.5,0.000653,0.007456,0.002911,0.003566,0.018966,0.014154,0.004885,0.004152,0.004553,0.003733,0.003888,0.007666,0.005502,0.004108,0.007804
274,-0.000365,0.006255,0.001287,0.003465,0.018651,0.013755,0.005607,0.004105,0.002652,0.003766,0.00359,0.008925,0.006226,0.004883,0.008085
273.5,-0.000825,0.006412,0.001213,0.003306,0.019463,0.013464,0.005327,0.00464,0.004452,0.003615,0.003241,0.008824,0.007153,0.003952,0.007426
273,-0.000209,0.00865,0.001531,0.002889,0.018225,0.013393,0.005905,0.003755,0.003716,0.004489,0.003687,0.008246,0.005735,0.00514,0.007818
272.5,-0.000786,0.005584,0.00157,0.003298,0.018234,0.013967,0.005408,0.003236,0.003615,0.003795,0.003412,0.007736,0.00647,0.004921,0.008372
272,0.000474,0.007884,0.002074,0.004214,0.019568,0.013827,0.005821,0.004306,0.004109,0.002684,0.002139,0.009603,0.006747,0.004926,0.008072
271.5,-0.000651,0.006375,0.001878,0.003652,0.0196,0.014187,0.005948,0.004266,0.005826,0.003185,0.003222,0.008541,0.006874,0.005409,0.008002
271,0.001232,0.007764,0.001592,0.003678,0.017932,0.014753,0.006037,0.004083,0.005021,0.003037,0.003038,0.010519,0.007704,0.004526,0.008191
270.5,0.00058,0.007859,0.001975,0.003429,0.020095,0.015475,0.0064,0.004523,0.004387,0.004029,0.003362,0.008832,0.00633,0.004896,0.008567
270,0.000329,0.007464,0.002685,0.004087,0.019655,0.015979,0.005763,0.003235,0.004149,0.004446,0.004269,0.009351,0.007918,0.004693,0.008547
269.5,0.000059,0.007762,0.002056,0.004745,0.019407,0.015086,0.00576,0.003459,0.004949,0.004587,0.003505,0.009982,0.008043,0.004887,0.008924
269,-0.000001,0.007051,0.002892,0.005125,0.020119,0.015482,0.006182,0.005034,0.005077,0.003775,0.004283,0.010022,0.008512,0.005528,0.008576
268.5,0.000292,0.00767,0.003363,0.004456,0.019892,0.015433,0.006794,0.004854,0.005553,0.004165,0.003011,0.008561,0.0077,0.005513,0.00911
268,-0.00079,0.007349,0.001906,0.003969,0.019113,0.014889,0.005618,0.004936,0.005576,0.003696,0.003719,0.009212,0.007099,0.005329,0.009511
267.5,0.000066,0.007748,0.003184,0.003862,0.020443,0.015985,0.007367,0.005528,0.005031,0.003902,0.002965,0.009701,0.007865,0.005017,0.009443
267,0.000657,0.007496,0.002718,0.003409,0.018874,0.015566,0.006068,0.005565,0.005574,0.003359,0.003086,0.008611,0.006321,0.00519,0.008971
266.5,0.00052,0.008443,0.002603,0.003797,0.018724,0.01522,0.005739,0.006845,0.004697,0.00355,0.004698,0.009509,0.007371,0.004713,0.009262
266,0.000359,0.007244,0.001424,0.005001,0.020394,0.01422,0.006034,0.005226,0.005143,0.003666,0.003922,0.009585,0.007489,0.004704,0.008815
265.5,-0.000677,0.008341,0.003222,0.004195,0.019337,0.015546,0.007803,0.003742,0.004174,0.004188,0.0042,0.009284,0.00759,0.005209,0.007995
265,-0.000316,0.007567,0.00269,0.004195,0.018885,0.015016,0.006257,0.00586,0.005885,0.004384,0.004091,0.009671,0.008062,0.004922,0.009835
264.5,-0.000453,0.007539,0.00311,0.004628,0.02053,0.015578,0.006904,0.005064,0.004333,0.004284,0.004809,0.010439,0.008483,0.004904,0.008643
264,0.000637,0.008485,0.003383,0.005621,0.020705,0.015479,0.006605,0.005671,0.005198,0.003951,0.003587,0.0084,0.007191,0.005105,0.008402
263.5,-0.000137,0.007977,0.002311,0.005193,0.02112,0.016018,0.007171,0.005716,0.005362,0.003653,0.003804,0.009134,0.007778,0.005763,0.009353
263,-0.001408,0.007893,0.003204,0.004828,0.020084,0.015898,0.006824,0.005393,0.005074,0.003685,0.005005,0.009811,0.007869,0.005969,0.010955
262.5,0.000418,0.00869,0.002305,0.004708,0.021133,0.015795,0.006596,0.005891,0.005231,0.003609,0.003237,0.009942,0.007347,0.006862,0.010398
262,0.000106,0.007937,0.00341,0.00484,0.020764,0.016364,0.00734,0.005111,0.005188,0.004725,0.004367,0.010145,0.008043,0.005575,0.009506
261.5,0.00036,0.009579,0.002317,0.004382,0.021455,0.015792,0.007438,0.005621,0.005809,0.004225,0.003938,0.010381,0.007994,0.006243,0.009644
261,-0.000209,0.008591,0.002236,0.004503,0.021127,0.015943,0.006943,0.005003,0.004932,0.004215,0.003743,0.010011,0.008805,0.005192,0.008649
260.5,0.000514,0.008757,0.002318,0.003917,0.020989,0.017256,0.007637,0.004739,0.005064,0.003521,0.003403,0.009644,0.007655,0.005851,0.009885
260,0.000379,0.008238,0.001996,0.005237,0.020568,0.016493,0.008322,0.005533,0.004779,0.004106,0.003596,0.010825,0.00796,0.006331,0.010808
259.5,0.000035,0.008318,0.002451,0.004793,0.020897,0.016577,0.007343,0.005042,0.004826,0.004113,0.004368,0.01041,0.008368,0.006257,0.010615
259,0.000211,0.009289,0.003641,0.004884,0.021686,0.016368,0.007514,0.005874,0.006161,0.00454,0.004391,0.01164,0.009289,0.006286,0.010492
258.5,0.000142,0.008165,0.00252,0.004853,0.020573,0.016902,0.008016,0.00614,0.006075,0.004798,0.004107,0.01114,0.009053,0.005997,0.010588
258,0.001554,0.009115,0.003611,0.005581,0.021948,0.016732,0.007506,0.005601,0.005762,0.00442,0.004911,0.011416,0.008543,0.00657,0.010832
257.5,-0.000095,0.009499,0.003297,0.005813,0.023113,0.016532,0.007709,0.006145,0.006013,0.003793,0.003728,0.009674,0.008376,0.006066,0.010155
257,-0.000705,0.009593,0.002595,0.005919,0.022499,0.01664,0.007578,0.005963,0.006125,0.00315,0.003648,0.010471,0.008377,0.006895,0.011569
256.5,-0.000517,0.009353,0.003122,0.005562,0.022761,0.016265,0.008806,0.006144,0.005899,0.004556,0.00441,0.012106,0.009634,0.005881,0.011256
256,0.000658,0.009002,0.003636,0.005426,0.022402,0.016909,0.007993,0.006829,0.006696,0.004806,0.004714,0.011499,0.009423,0.005427,0.010397
255.5,0.000853,0.010057,0.002511,0.00526,0.022973,0.016905,0.008051,0.006201,0.007161,0.005595,0.005334,0.011137,0.009075,0.006893,0.01064
255,-0.000303,0.009392,0.003102,0.006248,0.023522,0.016727,0.007501,0.006214,0.006625,0.0055,0.004719,0.011253,0.008713,0.00653,0.010841
254.5,0.000116,0.008891,0.002446,0.00577,0.023192,0.017747,0.008766,0.006664,0.006306,0.004355,0.004561,0.011972,0.009642,0.007111,0.011648
254,-0.000563,0.010299,0.003174,0.005556,0.023204,0.017136,0.007342,0.007135,0.006012,0.004981,0.005,0.011374,0.009383,0.007186,0.011622
253.5,-0.000043,0.010372,0.00351,0.005389,0.023209,0.018185,0.008267,0.006634,0.006526,0.004859,0.003958,0.012245,0.009395,0.00731,0.011998
253,-0.000837,0.009826,0.004355,0.006043,0.023624,0.017436,0.008362,0.006059,0.006636,0.00518,0.004852,0.010137,0.00897,0.006576,0.011259
252.5,-0.000143,0.009671,0.003579,0.006036,0.023244,0.018213,0.008692,0.006952,0.006634,0.004814,0.004753,0.010891,0.008851,0.006879,0.011401
252,0.000453,0.010438,0.004605,0.006208,0.023595,0.017509,0.007984,0.006232,0.006706,0.004782,0.005248,0.013075,0.009515,0.006361,0.012444
251.5,0.000467,0.01033,0.00354,0.006869,0.026426,0.018312,0.009045,0.006413,0.007219,0.005345,0.005977,0.011606,0.010476,0.007667,0.012373
251,-0.0003,0.010286,0.002552,0.006031,0.025859,0.017308,0.009054,0.006689,0.006889,0.004502,0.004717,0.012632,0.010407,0.006905,0.011827
250.5,-0.000007,0.010837,0.003664,0.006484,0.024471,0.018438,0.009043,0.006871,0.006842,0.005534,0.004964,0.012965,0.009931,0.007832,0.0128
250,0.000917,0.011086,0.004908,0.007038,0.025785,0.019181,0.01116,0.006294,0.006982,0.006216,0.00648,0.012722,0.010004,0.008594,0.013407
249.5,-0.000127,0.010722,0.003943,0.006396,0.026047,0.018569,0.010765,0.007065,0.007124,0.005685,0.005188,0.013564,0.010244,0.008081,0.013857
249,0.000161,0.01131,0.004131,0.007045,0.027212,0.019364,0.010534,0.006092,0.006242,0.006664,0.00595,0.012595,0.010322,0.007597,0.012764
248.5,0.000178,0.012719,0.00377,0.006779,0.026421,0.019583,0.010207,0.008017,0.008058,0.005759,0.005105,0.012974,0.01024,0.007747,0.013331
248,0.000389,0.011873,0.004286,0.006794,0.026551,0.02041,0.010561,0.007474,0.007215,0.006167,0.005503,0.014035,0.010839,0.008969,0.013486
247.5,-0.000677,0.011257,0.004436,0.007763,0.027192,0.019174,0.009783,0.007482,0.007886,0.006077,0.006316,0.014717,0.011411,0.00812,0.01344
247,0.000178,0.012704,0.00442,0.007762,0.028061,0.02027,0.010382,0.008625,0.007476,0.006101,0.006624,0.013698,0.010945,0.008467,0.013337
246.5,0.000133,0.012561,0.004491,0.007511,0.028281,0.019737,0.010524,0.007879,0.007658,0.006775,0.007064,0.015379,0.011433,0.008381,0.014403
246,0.000472,0.013133,0.004722,0.007954,0.028154,0.01962,0.010123,0.008136,0.008966,0.006468,0.005494,0.014736,0.010894,0.009415,0.014807
245.5,0.000444,0.012776,0.005347,0.007637,0.028732,0.02063,0.011171,0.008429,0.008647,0.006076,0.006212,0.014927,0.012055,0.00985,0.015732
245,0.000864,0.013091,0.004871,0.008702,0.030148,0.02036,0.01119,0.008453,0.008927,0.006649,0.006409,0.015421,0.011473,0.010215,0.016001
244.5,0.000003,0.013316,0.004518,0.008922,0.031487,0.02105,0.011246,0.00877,0.008239,0.007518,0.006844,0.016359,0.012434,0.010444,0.015699
244,0.000385,0.013387,0.004637,0.008813,0.03076,0.021642,0.011996,0.008912,0.008472,0.00736,0.007074,0.016504,0.012314,0.010518,0.016293
243.5,0.000146,0.013409,0.005603,0.008562,0.030348,0.021222,0.011825,0.009428,0.010199,0.007447,0.00718,0.015876,0.012577,0.009781,0.015742
243,-0.000135,0.014877,0.005374,0.009746,0.031886,0.02055,0.011609,0.010008,0.009548,0.00788,0.007892,0.016325,0.012374,0.010783,0.016667
242.5,0.000144,0.014367,0.006168,0.00949,0.032441,0.021653,0.012387,0.00993,0.009374,0.008346,0.008447,0.017479,0.013534,0.011052,0.017731
242,-0.000059,0.014648,0.005409,0.009378,0.033422,0.022002,0.012448,0.010324,0.009744,0.008188,0.007987,0.017232,0.013108,0.010169,0.017644
241.5,-0.000291,0.014944,0.006089,0.010263,0.033835,0.022946,0.012952,0.010178,0.009902,0.008012,0.008997,0.017557,0.013376,0.010632,0.018399
241,-0.00038,0.016235,0.006255,0.010265,0.03499,0.023485,0.014269,0.010116,0.010529,0.008685,0.008988,0.018854,0.014386,0.011058,0.01869
240.5,-0.000066,0.016003,0.006477,0.012031,0.036286,0.024013,0.013809,0.009811,0.011097,0.009255,0.008708,0.020097,0.015829,0.011509,0.018982
240,0.000129,0.016497,0.005863,0.011582,0.036978,0.023866,0.013791,0.01113,0.0118,0.009088,0.008896,0.01845,0.01439,0.011111,0.018107
